timestamps,TP9,AF7,AF8,TP10,Right AUX
1673934842.455,-1000.000,-1000.000,-126.465,-1000.000,0.000
1673934842.459,-1000.000,-1000.000,-828.125,-1000.000,0.000
1673934842.463,-1000.000,-1000.000,-82.520,-1000.000,0.000
1673934842.467,-934.570,-937.988,-1000.000,-937.988,0.000
1673934842.470,-1000.000,-1000.000,-1000.000,-1000.000,0.000
1673934842.474,-274.414,-221.191,-203.125,-221.191,0.000
1673934842.478,-981.934,-963.379,-963.867,-963.379,0.000
1673934842.482,957.031,949.219,948.242,949.219,0.000
1673934842.485,933.105,938.477,938.965,937.988,0.000
1673934842.489,972.656,972.168,972.168,972.168,0.000
1673934842.493,964.355,965.332,965.332,965.332,0.000
1673934842.496,964.844,965.332,969.238,965.820,0.000
1673934842.502,964.844,965.332,949.707,965.332,0.000
1673934842.506,964.844,965.332,997.559,965.332,0.000
1673934842.509,975.586,976.074,900.879,976.074,0.000
1673934842.513,921.875,924.316,680.664,923.828,0.000
1673934842.517,986.816,983.398,-946.777,983.398,0.000
1673934842.521,926.270,939.453,570.801,939.453,0.000
1673934842.524,-422.852,-403.320,-765.625,-403.809,0.000
1673934842.528,-1000.000,-1000.000,-1000.000,-1000.000,0.000
1673934842.532,-933.594,-933.594,-516.113,-933.594,0.000
1673934842.536,-1000.000,-1000.000,-996.582,-1000.000,0.000
1673934842.539,-1000.000,-1000.000,312.988,-1000.000,0.000
1673934842.543,-1000.000,-1000.000,-1000.000,-1000.000,0.000
1673934842.548,-1000.000,-1000.000,-1000.000,-1000.000,0.000
1673934842.552,-1000.000,-1000.000,-668.945,-1000.000,0.000
1673934842.556,-1000.000,-1000.000,912.598,-1000.000,0.000
1673934842.560,-1000.000,-1000.000,389.648,-1000.000,0.000
1673934842.563,-935.059,-935.059,-996.582,-934.570,0.000
1673934842.567,-1000.000,-1000.000,-1000.000,-1000.000,0.000
1673934842.571,-737.305,-737.305,-373.535,-731.445,0.000
1673934842.575,704.102,705.078,945.312,710.938,0.000
1673934842.578,-952.637,-951.660,982.910,-952.637,0.000
1673934842.582,900.391,901.367,922.852,901.855,0.000
1673934842.586,979.492,980.469,978.027,980.469,0.000
1673934842.589,964.844,965.332,960.938,965.332,0.000
1673934842.595,964.844,965.820,972.656,965.332,0.000
1673934842.598,977.539,979.004,959.473,979.004,0.000
1673934842.602,890.137,890.625,808.105,890.625,0.000
1673934842.606,-904.297,-904.785,-853.516,-904.785,0.000
1673934842.610,458.984,475.098,104.492,475.098,0.000
1673934842.613,-955.566,-947.754,-474.609,-947.754,0.000
1673934842.617,-1000.000,-1000.000,928.223,-1000.000,0.000
1673934842.621,-951.172,-949.707,-249.023,-949.707,0.000
1673934842.625,-1000.000,-1000.000,-1000.000,-1000.000,0.000
1673934842.628,-1000.000,-1000.000,-1000.000,-1000.000,0.000
1673934842.632,-1000.000,-1000.000,-156.738,-1000.000,0.000
1673934842.636,-1000.000,-1000.000,-877.441,-1000.000,0.000
1673934842.642,-1000.000,-1000.000,-203.125,-1000.000,0.000
1673934842.646,-1000.000,-1000.000,-1000.000,-1000.000,0.000
1673934842.649,-1000.000,-1000.000,-1000.000,-1000.000,0.000
1673934842.653,-1000.000,-1000.000,-267.578,-1000.000,0.000
1673934842.657,-1000.000,-1000.000,-827.148,-1000.000,0.000
1673934842.661,-1000.000,-1000.000,126.465,-1000.000,0.000
1673934842.664,-927.734,-927.734,-1000.000,-928.223,0.000
1673934842.668,-1000.000,-1000.000,-1000.000,-1000.000,0.000
1673934842.672,-417.480,-416.992,-225.586,-404.785,0.000
1673934842.676,960.449,960.938,-979.004,966.309,0.000
1673934842.679,981.445,982.422,953.613,980.469,0.000
1673934842.683,921.387,922.363,936.035,923.340,0.000
1673934842.689,977.051,978.027,973.145,977.539,0.000
1673934842.693,964.355,965.332,965.332,965.332,0.000
1673934842.696,964.355,965.332,965.820,965.332,0.000
1673934842.700,964.844,965.332,962.891,965.332,0.000
1673934842.704,964.844,965.332,969.238,965.820,0.000
1673934842.708,964.844,965.820,967.285,965.820,0.000
1673934842.711,965.332,966.309,891.602,966.309,0.000
1673934842.715,901.855,902.832,978.516,902.832,0.000
1673934842.719,-896.973,-895.996,854.492,-895.996,0.000
1673934842.723,186.035,186.035,-306.641,186.523,0.000
1673934842.726,-1000.000,-1000.000,-1000.000,-1000.000,0.000
1673934842.730,-984.375,-984.375,-724.121,-984.375,0.000
1673934842.736,-973.145,-973.145,835.938,-973.145,0.000
1673934842.740,-1000.000,-1000.000,469.727,-1000.000,0.000
1673934842.743,-1000.000,-1000.000,-980.957,-1000.000,0.000
1673934842.747,-1000.000,-1000.000,-1000.000,-1000.000,0.000
1673934842.751,-1000.000,-1000.000,-847.656,-1000.000,0.000
1673934842.755,-1000.000,-1000.000,616.699,-1000.000,0.000
1673934842.758,-1000.000,-1000.000,808.594,-1000.000,0.000
1673934842.762,-1000.000,-1000.000,-735.840,-1000.000,0.000
1673934842.766,-937.988,-937.988,-1000.000,-938.965,0.000
1673934842.770,-1000.000,-1000.000,-987.305,-1000.000,0.000
1673934842.773,-221.680,-221.191,164.062,-205.078,0.000
1673934842.777,-964.355,-963.379,-909.668,-959.473,0.000
1673934842.783,948.242,949.219,909.180,946.777,0.000
1673934842.787,937.500,937.988,963.867,939.453,0.000
1673934842.790,971.191,972.168,965.332,971.680,0.000
1673934842.794,964.355,965.820,966.797,965.332,0.000
1673934842.798,964.844,965.332,961.914,965.332,0.000
1673934842.802,964.844,965.332,950.684,965.332,0.000
1673934842.805,964.844,965.820,974.609,965.820,0.000
1673934842.809,965.332,966.309,890.137,966.309,0.000
1673934842.813,901.855,902.832,858.398,902.832,0.000
1673934842.817,-896.973,-896.484,-895.020,-895.996,0.000
1673934842.820,185.547,186.035,79.102,186.523,0.000
1673934842.824,-1000.000,-1000.000,-1000.000,-1000.000,0.000
1673934842.830,-984.375,-984.375,-1000.000,-984.375,0.000
1673934842.833,-973.145,-973.145,-240.234,-973.145,0.000
1673934842.837,-1000.000,-1000.000,-831.543,-1000.000,0.000
1673934842.841,-1000.000,-1000.000,110.352,-1000.000,0.000
1673934842.845,-1000.000,-1000.000,-1000.000,-1000.000,0.000
1673934842.849,-1000.000,-1000.000,-1000.000,-1000.000,0.000
1673934842.852,-1000.000,-1000.000,-218.750,-1000.000,0.000
1673934842.856,-1000.000,-1000.000,-821.777,-1000.000,0.000
1673934842.860,-1000.000,-1000.000,155.762,-1000.000,0.000
1673934842.864,-937.988,-937.988,-1000.000,-937.988,0.000
1673934842.867,-1000.000,-1000.000,-1000.000,-1000.000,0.000
1673934842.871,-221.680,-221.191,-130.859,-221.191,0.000
1673934842.876,-964.355,-963.379,-955.566,-963.379,0.000
1673934842.880,948.242,949.219,940.430,949.219,0.000
1673934842.884,937.500,937.988,942.871,937.988,0.000
1673934842.888,971.680,972.168,970.703,972.168,0.000
1673934842.892,964.844,965.332,965.332,965.332,0.000
1673934842.895,964.844,965.332,967.285,965.332,0.000
1673934842.899,964.355,965.820,954.102,965.332,0.000
1673934842.903,964.844,965.332,982.910,965.332,0.000
1673934842.907,971.191,972.168,954.590,972.168,0.000
1673934842.910,937.500,938.477,722.656,938.477,0.000
1673934842.914,948.242,949.219,983.887,949.219,0.000
1673934842.918,-964.355,-963.379,769.043,-963.379,0.000
1673934842.923,-221.680,-221.191,-568.359,-221.191,0.000
1673934842.927,-1000.000,-1000.000,-1000.000,-1000.000,0.000
1673934842.931,-937.988,-937.988,-640.137,-937.988,0.000
1673934842.934,-1000.000,-1000.000,867.188,-1000.000,0.000
1673934842.938,-1000.000,-1000.000,639.160,-1000.000,0.000
1673934842.942,-1000.000,-1000.000,-878.906,-1000.000,0.000
1673934842.946,-1000.000,-1000.000,-1000.000,-1000.000,0.000
1673934842.949,-1000.000,-1000.000,-1000.000,-1000.000,0.000
1673934842.953,-1000.000,-1000.000,192.871,-1000.000,0.000
1673934842.957,-1000.000,-1000.000,933.594,-1000.000,0.000
1673934842.961,-1000.000,-1000.000,-611.816,-1000.000,0.000
1673934842.964,-937.988,-937.988,-1000.000,-937.988,0.000
1673934842.970,-1000.000,-1000.000,-1000.000,-1000.000,0.000
1673934842.973,-221.680,-221.191,-1.953,-221.191,0.000
1673934842.977,-964.355,-963.379,-921.387,-963.379,0.000
1673934842.981,948.242,949.219,921.875,949.219,0.000
1673934842.985,937.500,937.988,954.590,937.988,0.000
1673934842.988,971.191,972.168,966.309,972.168,0.000
1673934842.992,964.355,965.332,961.914,965.332,0.000
1673934842.996,964.844,965.820,992.676,965.332,0.000
1673934843.000,964.844,965.332,787.109,965.332,0.000
1673934843.004,964.844,965.332,965.332,965.332,0.000
1673934843.007,970.703,973.145,536.621,971.680,0.000
1673934843.011,895.508,894.531,176.758,895.508,0.000
1673934843.017,-895.508,-895.996,-853.516,-895.020,0.000
1673934843.021,285.156,325.684,208.008,299.316,0.000
1673934843.024,-1000.000,-1000.000,-1000.000,-1000.000,0.000
1673934843.028,-1000.000,-1000.000,-1000.000,-1000.000,0.000
1673934843.032,-965.332,-961.914,-312.988,-964.355,0.000
1673934843.036,-1000.000,-1000.000,-854.004,-1000.000,0.000
1673934843.040,-1000.000,-1000.000,177.734,-1000.000,0.000
1673934843.043,-1000.000,-1000.000,-1000.000,-1000.000,0.000
1673934843.047,-1000.000,-1000.000,-1000.000,-1000.000,0.000
1673934843.051,-1000.000,-1000.000,-280.273,-1000.000,0.000
1673934843.055,-1000.000,-1000.000,-839.355,-1000.000,0.000
1673934843.058,-1000.000,-1000.000,161.621,-1000.000,0.000
1673934843.064,-946.289,-946.289,-1000.000,-946.289,0.000
1673934843.068,-1000.000,-1000.000,-1000.000,-1000.000,0.000
1673934843.072,-862.305,-862.305,-486.816,-861.328,0.000
1673934843.075,541.016,541.504,886.719,542.480,0.000
1673934843.079,-928.223,-927.246,-997.070,-927.246,0.000
1673934843.083,897.461,898.438,915.039,897.949,0.000
1673934843.087,977.051,977.539,979.980,977.539,0.000
1673934843.091,964.355,965.332,961.426,965.332,0.000
1673934843.094,964.355,965.332,975.586,965.332,0.000
1673934843.098,964.844,965.332,931.152,965.332,0.000
1673934843.102,964.844,965.332,916.992,965.332,0.000
1673934843.106,967.285,967.773,976.562,967.773,0.000
1673934843.111,950.684,953.125,772.461,953.125,0.000
1673934843.115,924.805,921.875,927.246,921.875,0.000
1673934843.119,-923.828,-916.992,905.762,-916.992,0.000
1673934843.122,-46.875,-17.578,-384.277,-17.578,0.000
1673934843.126,-1000.000,-1000.000,-1000.000,-1000.000,0.000
1673934843.130,-954.102,-957.031,-837.402,-957.031,0.000
1673934843.134,-990.234,-988.281,541.016,-988.281,0.000
1673934843.138,-1000.000,-1000.000,970.215,-1000.000,0.000
1673934843.141,-1000.000,-1000.000,-534.668,-1000.000,0.000
1673934843.145,-1000.000,-1000.000,-1000.000,-1000.000,0.000
1673934843.149,-1000.000,-1000.000,-1000.000,-1000.000,0.000
1673934843.153,-1000.000,-1000.000,-5.859,-1000.000,0.000
1673934843.158,-1000.000,-1000.000,969.727,-1000.000,0.000
1673934843.162,-1000.000,-1000.000,-532.227,-1000.000,0.000
1673934843.166,-937.988,-937.988,-1000.000,-937.988,0.000
1673934843.169,-1000.000,-1000.000,-1000.000,-1000.000,0.000
1673934843.173,-221.680,-221.191,-132.324,-221.191,0.000
1673934843.177,-964.355,-963.379,-942.871,-963.379,0.000
1673934843.181,948.242,949.219,936.523,949.219,0.000
1673934843.184,937.500,938.477,945.312,937.988,0.000
1673934843.188,971.191,972.168,970.215,972.168,0.000
1673934843.192,964.844,965.332,965.332,965.332,0.000
1673934843.196,964.355,965.332,971.680,965.332,0.000
1673934843.200,964.844,965.332,937.988,965.332,0.000
1673934843.205,964.844,965.332,-971.680,965.332,0.000
1673934843.209,978.027,980.469,796.387,979.980,0.000
1673934843.212,889.648,890.625,506.348,890.625,0.000
1673934843.216,-905.762,-912.109,-902.832,-908.691,0.000
1673934843.220,474.121,534.668,311.523,507.812,0.000
1673934843.224,-947.754,-909.668,-982.910,-926.758,0.000
1673934843.228,-1000.000,-1000.000,-1000.000,-1000.000,0.000
1673934843.231,-949.707,-945.312,-252.930,-947.266,0.000
1673934843.235,-1000.000,-1000.000,-836.914,-1000.000,0.000
1673934843.239,-1000.000,-1000.000,158.203,-1000.000,0.000
1673934843.243,-1000.000,-1000.000,-1000.000,-1000.000,0.000
1673934843.246,-1000.000,-1000.000,-1000.000,-1000.000,0.000
1673934843.252,-1000.000,-1000.000,-589.844,-1000.000,0.000
1673934843.255,-1000.000,-1000.000,992.676,-1000.000,0.000
1673934843.259,-1000.000,-1000.000,339.844,-1000.000,0.000
1673934843.263,-946.289,-946.289,-1000.000,-944.824,0.000
1673934843.267,-1000.000,-1000.000,-1000.000,-1000.000,0.000
1673934843.271,-862.305,-862.305,-459.961,-845.215,0.000
1673934843.274,541.016,541.504,898.926,563.965,0.000
1673934843.278,-928.223,-927.246,999.023,-930.664,0.000
1673934843.282,897.461,898.438,916.016,898.438,0.000
1673934843.286,977.051,977.539,980.469,978.027,0.000
1673934843.290,964.844,965.332,957.031,965.820,0.000
1673934843.293,964.355,965.332,982.422,965.332,0.000
1673934843.298,964.844,965.332,916.504,965.332,0.000
1673934843.302,964.844,965.332,843.262,965.332,0.000
1673934843.306,964.844,965.820,983.398,965.820,0.000
1673934843.310,965.332,966.309,675.293,966.309,0.000
1673934843.314,901.855,902.832,712.402,902.832,0.000
1673934843.317,-896.973,-895.996,-853.516,-896.484,0.000
1673934843.321,186.035,186.523,90.332,186.035,0.000
1673934843.325,-1000.000,-1000.000,-1000.000,-1000.000,0.000
1673934843.329,-984.375,-984.375,-1000.000,-984.375,0.000
1673934843.332,-973.145,-973.145,-3.906,-973.145,0.000
1673934843.336,-1000.000,-1000.000,-895.996,-1000.000,0.000
1673934843.340,-1000.000,-1000.000,-270.996,-1000.000,0.000
1673934843.345,-1000.000,-1000.000,-1000.000,-1000.000,0.000
1673934843.349,-1000.000,-1000.000,-1000.000,-1000.000,0.000
1673934843.353,-1000.000,-1000.000,-111.328,-1000.000,0.000
1673934843.357,-1000.000,-1000.000,-836.914,-1000.000,0.000
1673934843.360,-1000.000,-1000.000,-115.723,-1000.000,0.000
1673934843.364,-927.734,-928.711,-1000.000,-929.688,0.000
1673934843.368,-1000.000,-1000.000,-1000.000,-1000.000,0.000
1673934843.372,-417.480,-389.648,-210.938,-364.746,0.000
1673934843.375,960.449,973.145,-964.844,983.887,0.000
1673934843.379,981.934,977.539,948.730,973.145,0.000
1673934843.383,921.387,924.316,938.477,926.758,0.000
1673934843.387,977.051,977.051,972.168,976.074,0.000
1673934843.392,964.355,965.332,965.332,965.332,0.000
1673934843.396,964.355,965.332,968.750,965.332,0.000
1673934843.400,964.844,965.332,948.242,965.332,0.000
1673934843.404,964.355,965.332,985.840,965.332,0.000
1673934843.407,980.469,981.445,906.738,981.445,0.000
1673934843.411,890.137,890.625,752.930,890.625,0.000
1673934843.415,-916.504,-915.527,-898.438,-915.527,0.000
1673934843.419,562.500,562.988,368.164,562.988,0.000
1673934843.423,-891.602,-891.602,-934.570,-891.602,0.000
1673934843.426,-1000.000,-1000.000,-1000.000,-1000.000,0.000
1673934843.430,-942.871,-942.871,-699.219,-942.871,0.000
1673934843.434,-1000.000,-1000.000,833.008,-1000.000,0.000
1673934843.440,-1000.000,-1000.000,392.578,-1000.000,0.000
1673934843.444,-1000.000,-1000.000,-1000.000,-1000.000,0.000
1673934843.448,-1000.000,-1000.000,-1000.000,-1000.000,0.000
1673934843.451,-1000.000,-1000.000,-754.883,-1000.000,0.000
1673934843.455,-1000.000,-1000.000,788.574,-1000.000,0.000
1673934843.459,-1000.000,-1000.000,657.227,-1000.000,0.000
1673934843.463,-985.840,-980.957,-857.910,-980.957,0.000
1673934843.467,-961.426,-969.727,-1000.000,-969.727,0.000
1673934843.470,-1000.000,-1000.000,-862.305,-1000.000,0.000
1673934843.474,18.555,84.961,417.969,84.961,0.000
1673934843.478,-913.086,-903.320,-919.434,-903.320,0.000
1673934843.482,917.480,911.133,900.879,911.133,0.000
1673934843.487,955.078,959.961,973.633,959.961,0.000
1673934843.491,966.309,966.309,965.820,966.309,0.000
1673934843.495,964.355,965.332,965.820,965.332,0.000
1673934843.499,964.844,965.332,958.008,965.332,0.000
1673934843.502,964.844,965.332,966.797,965.332,0.000
1673934843.506,964.844,965.820,988.770,965.820,0.000
1673934843.510,965.332,965.820,719.238,966.309,0.000
1673934843.514,901.855,902.832,762.207,902.832,0.000
1673934843.518,-896.973,-895.996,-864.746,-895.996,0.000
1673934843.521,186.035,186.523,75.195,186.035,0.000
1673934843.525,-1000.000,-1000.000,-1000.000,-1000.000,0.000
1673934843.529,-984.375,-984.375,-1000.000,-984.375,0.000
1673934843.534,-973.145,-973.145,-118.164,-973.145,0.000
1673934843.538,-1000.000,-1000.000,-825.684,-1000.000,0.000
1673934843.542,-1000.000,-1000.000,-23.438,-1000.000,0.000
1673934843.545,-1000.000,-1000.000,-1000.000,-1000.000,0.000
1673934843.549,-1000.000,-1000.000,-1000.000,-1000.000,0.000
1673934843.553,-1000.000,-1000.000,-240.723,-1000.000,0.000
1673934843.557,-1000.000,-1000.000,-828.125,-1000.000,0.000
1673934843.561,-1000.000,-1000.000,104.492,-1000.000,0.000
1673934843.564,-925.781,-925.781,-1000.000,-925.781,0.000
1673934843.568,-1000.000,-1000.000,-1000.000,-1000.000,0.000
1673934843.572,-598.145,-557.129,-262.695,-535.645,0.000
1673934843.576,855.957,882.812,-992.676,896.484,0.000
1673934843.581,-981.445,-989.258,959.961,-993.652,0.000
1673934843.585,907.227,911.133,933.105,912.598,0.000
1673934843.589,980.957,980.957,974.121,980.469,0.000
1673934843.592,964.844,965.820,965.332,965.332,0.000
1673934843.596,964.844,965.820,967.285,965.332,0.000
1673934843.600,964.844,965.332,958.496,965.332,0.000
1673934843.604,964.844,965.820,977.539,965.332,0.000
1673934843.608,975.098,974.121,956.543,974.609,0.000
1673934843.611,923.340,932.617,806.641,928.711,0.000
1673934843.615,982.910,962.402,-960.449,972.656,0.000
1673934843.619,938.477,999.512,646.484,970.215,0.000
1673934843.623,-403.809,-291.016,-692.383,-345.703,0.000
1673934843.628,-1000.000,-1000.000,-1000.000,-1000.000,0.000
1673934843.632,-933.594,-936.035,-747.559,-935.059,0.000
1673934843.635,-1000.000,-1000.000,765.625,-1000.000,0.000
1673934843.639,-1000.000,-1000.000,573.730,-1000.000,0.000
1673934843.643,-1000.000,-1000.000,-910.645,-1000.000,0.000
1673934843.647,-1000.000,-1000.000,-1000.000,-1000.000,0.000
1673934843.651,-1000.000,-1000.000,-793.945,-1000.000,0.000
1673934843.654,-1000.000,-1000.000,712.891,-1000.000,0.000
1673934843.658,-1000.000,-1000.000,720.215,-1000.000,0.000
1673934843.662,-1000.000,-1000.000,-837.891,-1000.000,0.000
1673934843.666,-937.988,-937.988,-1000.000,-937.988,0.000
1673934843.670,-1000.000,-1000.000,-1000.000,-1000.000,0.000
1673934843.675,-221.680,-221.191,58.105,-221.191,0.000
1673934843.678,-964.355,-963.379,-914.062,-963.379,0.000
1673934843.682,948.242,949.219,916.016,949.219,0.000
1673934843.686,937.500,938.477,958.008,938.477,0.000
1673934843.690,971.191,972.168,967.285,972.168,0.000
1673934843.694,964.844,965.820,965.332,965.332,0.000
1673934843.697,964.844,965.820,966.309,965.332,0.000
1673934843.701,964.844,965.332,938.965,965.332,0.000
1673934843.705,964.844,965.820,-942.871,965.332,0.000
1673934843.709,965.332,965.820,551.270,966.309,0.000
1673934843.713,901.855,902.832,420.410,902.832,0.000
1673934843.716,-896.973,-895.996,-829.590,-896.484,0.000
1673934843.721,185.547,186.035,131.348,186.035,0.000
1673934843.725,-1000.000,-1000.000,-1000.000,-1000.000,0.000
1673934843.729,-984.375,-984.375,-1000.000,-984.375,0.000
1673934843.733,-973.145,-973.145,-281.250,-973.145,0.000
1673934843.736,-1000.000,-1000.000,-839.355,-1000.000,0.000
1673934843.740,-1000.000,-1000.000,163.574,-1000.000,0.000
1673934843.744,-1000.000,-1000.000,-1000.000,-1000.000,0.000
1673934843.748,-1000.000,-1000.000,-1000.000,-1000.000,0.000
1673934843.752,-1000.000,-1000.000,-336.914,-1000.000,0.000
1673934843.755,-1000.000,-1000.000,-861.816,-1000.000,0.000
1673934843.759,-1000.000,-1000.000,170.898,-1000.000,0.000
1673934843.763,-935.059,-935.059,-1000.000,-931.641,0.000
1673934843.768,-1000.000,-1000.000,-1000.000,-1000.000,0.000
1673934843.772,-737.305,-736.816,-350.586,-686.035,0.000
1673934843.776,704.102,705.078,966.309,760.742,0.000
1673934843.780,-952.637,-951.660,976.562,-962.402,0.000
1673934843.784,900.391,901.367,925.781,903.809,0.000
1673934843.787,979.980,980.957,976.562,980.957,0.000
1673934843.791,964.844,965.820,965.332,965.332,0.000
1673934843.795,964.844,965.332,967.285,965.332,0.000
1673934843.799,964.844,965.332,950.684,965.332,0.000
1673934843.803,964.844,965.332,985.352,965.332,0.000
1673934843.806,969.238,969.727,958.984,969.727,0.000
1673934843.810,944.336,945.801,645.508,945.801,0.000
1673934843.815,935.547,934.570,921.875,934.570,0.000
1673934843.819,-939.941,-936.523,864.258,-936.523,0.000
1673934843.823,-129.883,-120.117,-492.676,-120.117,0.000
1673934843.827,-1000.000,-1000.000,-1000.000,-1000.000,0.000
1673934843.831,-945.312,-946.289,-921.875,-946.289,0.000
1673934843.835,-995.605,-995.117,478.516,-995.117,0.000
1673934843.838,-1000.000,-1000.000,781.738,-1000.000,0.000
1673934843.842,-1000.000,-1000.000,-777.832,-1000.000,0.000
1673934843.846,-1000.000,-1000.000,-1000.000,-1000.000,0.000
1673934843.850,-1000.000,-1000.000,-1000.000,-1000.000,0.000
1673934843.854,-1000.000,-1000.000,174.805,-1000.000,0.000
1673934843.857,-1000.000,-1000.000,-945.312,-1000.000,0.000
1673934843.862,-1000.000,-1000.000,-431.641,-1000.000,0.000
1673934843.866,-937.988,-937.988,-1000.000,-937.988,0.000
1673934843.870,-1000.000,-1000.000,-1000.000,-1000.000,0.000
1673934843.874,-221.680,-221.191,-22.461,-221.191,0.000
1673934843.878,-963.867,-963.379,-921.875,-963.379,0.000
1673934843.882,948.242,949.219,923.340,949.219,0.000
1673934843.885,937.500,938.477,953.125,937.988,0.000
1673934843.889,971.191,972.168,968.262,972.168,0.000
1673934843.893,964.844,965.820,965.332,965.332,0.000
1673934843.897,964.844,965.332,971.191,965.332,0.000
1673934843.901,964.844,965.332,932.617,965.332,0.000
1673934843.904,964.844,965.332,-947.754,965.332,0.000
1673934843.909,974.609,976.074,670.898,975.586,0.000
1673934843.913,891.602,892.578,398.438,892.578,0.000
1673934843.917,-898.438,-897.461,-871.094,-897.949,0.000
1673934843.921,381.836,382.324,251.465,382.324,0.000
1673934843.925,-996.094,-996.094,-1000.000,-996.094,0.000
1673934843.928,-1000.000,-1000.000,-1000.000,-1000.000,0.000
1673934843.932,-957.520,-957.520,-242.676,-957.520,0.000
1673934843.936,-1000.000,-1000.000,-830.566,-1000.000,0.000
1673934843.940,-1000.000,-1000.000,184.082,-1000.000,0.000
1673934843.944,-1000.000,-1000.000,-1000.000,-1000.000,0.000
1673934843.948,-1000.000,-1000.000,-1000.000,-1000.000,0.000
1673934843.951,-1000.000,-1000.000,-418.945,-1000.000,0.000
1673934843.956,-1000.000,-1000.000,-899.414,-1000.000,0.000
1673934843.960,-1000.000,-1000.000,212.891,-1000.000,0.000
1673934843.964,-980.469,-974.609,-1000.000,-974.121,0.000
1673934843.968,-970.215,-981.445,-1000.000,-982.422,0.000
1673934843.971,-1000.000,-1000.000,-655.273,-1000.000,0.000
1673934843.975,89.355,165.527,720.215,173.340,0.000
1673934843.979,-903.809,-897.461,-963.379,-896.973,0.000
1673934843.983,910.156,904.785,906.250,903.809,0.000
1673934843.987,959.961,965.332,979.980,965.332,0.000
1673934843.991,965.332,965.820,959.961,965.820,0.000
1673934843.994,964.355,965.332,978.516,965.332,0.000
1673934843.998,964.844,965.332,919.922,965.332,0.000
1673934844.003,964.844,965.332,895.996,965.332,0.000
1673934844.007,966.797,967.773,984.863,967.773,0.000
1673934844.011,952.637,953.125,660.645,953.613,0.000
1673934844.014,920.898,921.875,833.496,921.875,0.000
1673934844.018,-917.969,-916.992,987.793,-916.992,0.000
1673934844.022,-17.578,-17.578,-336.914,-17.578,0.000
1673934844.026,-1000.000,-1000.000,-1000.000,-1000.000,0.000
1673934844.030,-957.031,-957.031,-1000.000,-957.031,0.000
1673934844.034,-988.281,-988.281,103.027,-988.281,0.000
1673934844.037,-1000.000,-1000.000,-976.562,-1000.000,0.000
1673934844.041,-1000.000,-1000.000,-456.055,-1000.000,0.000
1673934844.045,-1000.000,-1000.000,-1000.000,-1000.000,0.000
1673934844.050,-1000.000,-1000.000,-1000.000,-1000.000,0.000
1673934844.054,-1000.000,-1000.000,-150.879,-1000.000,0.000
1673934844.058,-1000.000,-1000.000,-860.840,-1000.000,0.000
1673934844.061,-1000.000,-1000.000,-155.762,-1000.000,0.000
1673934844.065,-937.988,-937.988,-1000.000,-937.988,0.000
1673934844.069,-1000.000,-1000.000,-1000.000,-1000.000,0.000
1673934844.073,-221.680,-221.191,-5.859,-221.191,0.000
1673934844.077,-964.355,-963.379,-922.852,-963.379,0.000
1673934844.080,948.242,949.219,923.340,949.219,0.000
1673934844.084,937.500,938.477,953.125,937.988,0.000
1673934844.088,971.680,972.168,967.773,972.168,0.000
1673934844.092,964.844,965.332,956.543,965.820,0.000
1673934844.096,964.844,965.332,-995.117,965.332,0.000
1673934844.100,964.844,965.332,772.461,965.332,0.000
1673934844.104,964.355,965.332,875.000,965.332,0.000
1673934844.108,978.516,979.004,702.637,979.004,0.000
1673934844.112,910.645,911.133,276.855,911.133,0.000
1673934844.116,-982.422,-981.934,-929.199,-981.934,0.000
1673934844.119,826.660,827.637,513.672,827.148,0.000
1673934844.123,-576.660,-576.660,-851.074,-576.660,0.000
1673934844.127,-1000.000,-1000.000,-1000.000,-1000.000,0.000
1673934844.131,-933.594,-933.105,-437.500,-933.105,0.000
1673934844.135,-1000.000,-1000.000,-935.059,-1000.000,0.000
1673934844.138,-1000.000,-1000.000,265.137,-1000.000,0.000
1673934844.144,-1000.000,-1000.000,-1000.000,-1000.000,0.000
1673934844.147,-1000.000,-1000.000,-1000.000,-1000.000,0.000
1673934844.151,-1000.000,-1000.000,-666.992,-1000.000,0.000
1673934844.155,-1000.000,-1000.000,919.922,-1000.000,0.000
1673934844.159,-1000.000,-1000.000,394.531,-1000.000,0.000
1673934844.163,-958.984,-956.055,-992.676,-951.172,0.000
1673934844.167,-1000.000,-1000.000,-1000.000,-1000.000,0.000
1673934844.170,-974.609,-947.266,-490.234,-903.320,0.000
1673934844.174,368.164,410.156,869.629,478.027,0.000
1673934844.178,-908.691,-912.598,-994.141,-920.410,0.000
1673934844.182,897.949,898.438,914.062,898.438,0.000
1673934844.186,972.168,974.121,980.957,975.586,0.000
1673934844.191,964.844,965.332,958.008,965.332,0.000
1673934844.195,964.844,965.820,964.844,965.820,0.000
1673934844.198,965.332,966.309,967.773,966.309,0.000
1673934844.202,901.855,902.344,577.637,902.832,0.000
1673934844.206,-896.973,-896.484,579.102,-895.996,0.000
1673934844.210,186.035,186.523,-309.082,186.035,0.000
1673934844.214,-1000.000,-1000.000,-166.016,-1000.000,0.000
1673934844.217,-984.375,-984.375,-929.199,-984.375,0.000
1673934844.221,-973.145,-973.145,-354.004,-973.145,0.000
1673934844.225,-1000.000,-1000.000,-1000.000,-1000.000,0.000
1673934844.229,-1000.000,-1000.000,-1000.000,-1000.000,0.000
1673934844.233,-1000.000,-1000.000,-98.145,-1000.000,0.000
1673934844.238,-1000.000,-1000.000,-913.086,-1000.000,0.000
1673934844.242,-1000.000,-1000.000,-302.734,-1000.000,0.000
1673934844.245,-931.641,-931.641,-1000.000,-931.641,0.000
1673934844.249,-1000.000,-1000.000,-1000.000,-1000.000,0.000
1673934844.253,-322.266,-320.801,-187.988,-320.312,0.000
1673934844.257,-998.535,-997.559,-955.566,-997.070,0.000
1673934844.261,964.844,965.332,944.336,965.332,0.000
1673934844.265,929.688,930.664,940.430,930.176,0.000
1673934844.268,974.121,975.098,975.098,974.609,0.000
1673934844.272,964.355,965.820,936.523,965.332,0.000
1673934844.276,975.586,979.004,984.863,978.516,0.000
1673934844.280,891.602,890.625,778.809,891.113,0.000
1673934844.285,-899.414,-904.297,-257.812,-903.320,0.000
1673934844.289,398.438,475.098,-1000.000,457.520,0.000
1673934844.292,-987.305,-947.754,-514.648,-957.031,0.000
1673934844.296,-1000.000,-1000.000,-965.820,-1000.000,0.000
1673934844.300,-956.055,-949.707,206.055,-951.172,0.000
1673934844.304,-1000.000,-1000.000,-1000.000,-1000.000,0.000
1673934844.308,-1000.000,-1000.000,-1000.000,-1000.000,0.000
1673934844.311,-1000.000,-1000.000,-443.848,-1000.000,0.000
1673934844.315,-1000.000,-1000.000,-908.691,-1000.000,0.000
1673934844.319,-1000.000,-1000.000,233.887,-1000.000,0.000
1673934844.323,-973.145,-973.145,-1000.000,-973.145,0.000
1673934844.327,-984.375,-984.375,-1000.000,-984.375,0.000
1673934844.332,-1000.000,-1000.000,-693.359,-1000.000,0.000
1673934844.335,185.547,186.523,670.898,186.035,0.000
1673934844.339,-896.973,-895.996,-955.566,-895.996,0.000
1673934844.343,902.344,902.832,905.273,902.832,0.000
1673934844.347,965.332,966.309,978.027,966.309,0.000
1673934844.351,964.844,965.820,964.844,965.820,0.000
1673934844.355,964.844,965.820,968.262,965.332,0.000
1673934844.358,965.332,966.309,956.055,966.309,0.000
1673934844.362,901.855,902.832,900.879,902.832,0.000
1673934844.366,-896.973,-896.484,-837.402,-895.996,0.000
1673934844.370,186.035,186.035,-82.031,186.035,0.000
1673934844.374,-1000.000,-1000.000,-428.223,-1000.000,0.000
1673934844.378,-984.375,-984.375,607.910,-984.375,0.000
1673934844.382,-973.145,-973.145,-705.078,-973.145,0.000
1673934844.386,-1000.000,-1000.000,-1000.000,-1000.000,0.000
1673934844.390,-1000.000,-1000.000,-1000.000,-1000.000,0.000
1673934844.394,-1000.000,-1000.000,-48.828,-1000.000,0.000
1673934844.397,-1000.000,-1000.000,-846.680,-1000.000,0.000
1673934844.401,-1000.000,-1000.000,-195.312,-1000.000,0.000
1673934844.405,-995.117,-995.117,-1000.000,-992.676,0.000
1673934844.409,-946.289,-946.289,-1000.000,-950.195,0.000
1673934844.413,-1000.000,-1000.000,-193.848,-1000.000,0.000
1673934844.417,-120.117,-119.141,-958.496,-83.008,0.000
1673934844.420,-937.500,-936.523,945.801,-929.688,0.000
1673934844.425,933.594,934.570,939.941,929.688,0.000
1673934844.429,945.312,946.289,970.703,948.730,0.000
1673934844.433,968.750,969.727,966.309,968.750,0.000
1673934844.437,964.355,965.332,968.750,965.332,0.000
1673934844.440,964.844,965.332,924.805,965.332,0.000
1673934844.444,964.844,965.332,972.168,965.332,0.000
1673934844.448,974.609,975.586,873.535,975.586,0.000
1673934844.452,891.602,892.578,768.066,892.578,0.000
1673934844.456,-898.438,-897.461,-878.418,-897.461,0.000
1673934844.460,381.348,381.836,224.121,382.324,0.000
1673934844.463,-996.094,-996.094,-988.281,-996.094,0.000
1673934844.467,-1000.000,-1000.000,-1000.000,-1000.000,0.000
1673934844.472,-957.520,-957.520,-387.695,-957.520,0.000
1673934844.476,-1000.000,-1000.000,-889.648,-1000.000,0.000
1673934844.479,-1000.000,-1000.000,194.336,-1000.000,0.000
1673934844.483,-1000.000,-1000.000,-1000.000,-1000.000,0.000
1673934844.487,-1000.000,-1000.000,-1000.000,-1000.000,0.000
1673934844.491,-1000.000,-1000.000,-340.332,-1000.000,0.000
1673934844.495,-1000.000,-1000.000,-861.328,-1000.000,0.000
1673934844.499,-1000.000,-1000.000,241.699,-1000.000,0.000
1673934844.502,-958.984,-958.984,-1000.000,-956.543,0.000
1673934844.506,-1000.000,-1000.000,-1000.000,-1000.000,0.000
1673934844.510,-974.121,-974.121,-571.777,-950.195,0.000
1673934844.514,368.164,368.652,810.547,405.762,0.000
1673934844.519,-908.691,-908.203,-979.004,-912.109,0.000
1673934844.523,897.461,898.438,909.668,898.438,0.000
1673934844.527,972.168,972.656,981.445,973.633,0.000
1673934844.530,964.844,965.332,966.309,965.332,0.000
1673934844.534,966.797,966.309,914.551,966.797,0.000
1673934844.538,952.637,959.961,-950.195,958.008,0.000
1673934844.542,920.898,911.133,387.695,914.551,0.000
1673934844.546,-917.969,-903.320,-872.070,-907.715,0.000
1673934844.550,-18.066,84.961,-1000.000,50.781,0.000
1673934844.553,-1000.000,-1000.000,194.824,-1000.000,0.000
1673934844.557,-957.031,-969.727,-930.176,-965.332,0.000
1673934844.561,-988.281,-980.957,-312.012,-983.398,0.000
1673934844.566,-1000.000,-1000.000,-1000.000,-1000.000,0.000
1673934844.570,-1000.000,-1000.000,-927.246,-1000.000,0.000
1673934844.574,-1000.000,-1000.000,252.930,-1000.000,0.000
1673934844.577,-1000.000,-1000.000,-793.945,-1000.000,0.000
1673934844.581,-1000.000,-1000.000,18.555,-1000.000,0.000
1673934844.585,-937.988,-937.988,-1000.000,-937.988,0.000
1673934844.589,-1000.000,-1000.000,-1000.000,-1000.000,0.000
1673934844.593,-221.680,-221.191,74.219,-221.191,0.000
1673934844.597,-964.355,-963.379,-917.480,-963.379,0.000
1673934844.600,948.242,949.219,909.668,949.219,0.000
1673934844.604,937.500,938.477,980.469,937.988,0.000
1673934844.608,971.191,972.168,878.906,972.168,0.000
1673934844.613,964.844,965.332,784.668,965.332,0.000
1673934844.617,980.469,980.957,-879.395,980.957,0.000
1673934844.621,898.926,899.902,262.207,899.414,0.000
1673934844.624,-948.242,-947.266,-1000.000,-947.266,0.000
1673934844.628,701.660,702.637,-956.055,698.730,0.000
1673934844.632,-740.234,-739.746,-1000.000,-743.652,0.000
1673934844.636,-1000.000,-1000.000,-574.707,-1000.000,0.000
1673934844.640,-936.523,-936.523,-167.480,-936.523,0.000
1673934844.644,-1000.000,-1000.000,-894.531,-1000.000,0.000
1673934844.647,-1000.000,-1000.000,-1000.000,-1000.000,0.000
1673934844.651,-1000.000,-1000.000,-329.590,-1000.000,0.000
1673934844.655,-1000.000,-1000.000,-865.234,-1000.000,0.000
1673934844.660,-1000.000,-1000.000,226.562,-1000.000,0.000
1673934844.664,-925.781,-925.781,-1000.000,-925.781,0.000
1673934844.668,-1000.000,-1000.000,-1000.000,-1000.000,0.000
1673934844.671,-510.254,-506.348,-333.984,-510.254,0.000
1673934844.675,911.621,914.551,970.703,912.598,0.000
1673934844.679,-1000.000,-1000.000,974.121,-999.023,0.000
1673934844.683,914.062,915.039,926.758,914.551,0.000
1673934844.687,979.004,979.980,984.863,979.980,0.000
1673934844.691,964.844,965.332,922.363,965.332,0.000
1673934844.694,964.844,965.332,-997.559,965.332,0.000
1673934844.698,964.355,965.332,802.734,965.332,0.000
1673934844.702,964.844,965.820,-400.879,965.332,0.000
1673934844.707,965.332,965.820,-1000.000,965.820,0.000
1673934844.711,965.820,966.309,-687.988,966.309,0.000
1673934844.714,901.855,902.832,753.906,902.832,0.000
1673934844.718,-896.973,-895.996,929.199,-895.996,0.000
1673934844.722,186.035,186.523,-467.285,186.035,0.000
1673934844.726,-1000.000,-1000.000,-1000.000,-1000.000,0.000
1673934844.730,-984.375,-984.375,-958.496,-984.375,0.000
1673934844.734,-973.145,-973.145,483.887,-973.145,0.000
1673934844.737,-1000.000,-1000.000,631.836,-1000.000,0.000
1673934844.741,-1000.000,-1000.000,-965.332,-1000.000,0.000
1673934844.745,-937.988,-937.988,-979.980,-937.988,0.000
1673934844.749,-1000.000,-1000.000,-1000.000,-1000.000,0.000
1673934844.754,-221.680,-221.191,-209.961,-221.191,0.000
1673934844.758,-964.355,-963.379,-957.031,-963.379,0.000
1673934844.761,948.242,949.219,945.801,949.219,0.000
1673934844.765,937.500,938.477,940.430,938.477,0.000
1673934844.769,971.680,972.656,971.680,972.168,0.000
1673934844.773,964.844,965.332,965.820,965.332,0.000
1673934844.777,964.844,965.332,965.820,965.332,0.000
1673934844.781,964.844,965.820,964.355,965.332,0.000
1673934844.784,964.844,965.332,969.238,965.332,0.000
1673934844.788,964.844,965.332,951.660,965.332,0.000
1673934844.792,964.844,965.332,959.473,965.332,0.000
1673934844.796,964.844,965.332,954.590,965.332,0.000
1673934844.800,964.844,965.332,629.395,965.332,0.000
1673934844.804,964.844,965.820,805.176,965.820,0.000
1673934844.808,965.332,966.309,966.797,965.820,0.000
1673934844.812,902.344,902.832,702.148,902.832,0.000
1673934844.816,-896.973,-895.996,944.824,-895.996,0.000
1673934844.820,186.035,186.523,-109.375,185.547,0.000
1673934844.823,-1000.000,-1000.000,-1000.000,-1000.000,0.000
1673934844.827,-984.375,-984.375,-916.016,-983.887,0.000
1673934844.831,-973.145,-973.145,-1000.000,-973.145,0.000
1673934844.835,-1000.000,-1000.000,-101.562,-1000.000,0.000
1673934844.839,-1000.000,-1000.000,-65.918,-1000.000,0.000
1673934844.843,-1000.000,-1000.000,-1000.000,-1000.000,0.000
1673934844.847,-1000.000,-1000.000,-953.125,-1000.000,0.000
1673934844.851,-1000.000,-1000.000,-1000.000,-1000.000,0.000
1673934844.855,-1000.000,-1000.000,153.809,-1000.000,0.000
1673934844.859,-1000.000,-1000.000,100.586,-1000.000,0.000
1673934844.862,-995.117,-995.117,-1000.000,-995.117,0.000
1673934844.866,-946.289,-946.289,-957.520,-946.289,0.000
1673934844.870,-1000.000,-1000.000,-1000.000,-1000.000,0.000
1673934844.874,-120.117,-119.629,171.875,-120.117,0.000
1673934844.878,-937.012,-936.523,-910.645,-937.012,0.000
1673934844.882,934.082,934.570,909.668,934.570,0.000
1673934844.885,945.312,946.289,963.379,945.801,0.000
1673934844.889,969.238,969.727,966.309,969.727,0.000
1673934844.894,964.844,965.332,965.332,965.332,0.000
1673934844.898,964.844,965.332,965.332,965.332,0.000
1673934844.902,964.844,965.332,965.332,965.332,0.000
1673934844.906,964.844,965.332,965.332,965.332,0.000
1673934844.910,964.355,965.332,965.332,965.332,0.000
1673934844.913,964.355,965.332,965.332,965.332,0.000
1673934844.917,964.844,965.820,965.332,965.332,0.000
1673934844.921,964.844,965.332,965.332,965.332,0.000
1673934844.925,964.844,965.820,965.332,965.332,0.000
1673934844.929,964.844,965.332,965.332,965.332,0.000
1673934844.933,964.844,965.332,965.332,965.332,0.000
1673934844.936,964.844,965.332,966.309,965.332,0.000
1673934844.941,964.844,965.820,962.402,965.332,0.000
1673934844.945,964.844,965.332,973.145,965.332,0.000
1673934844.949,980.469,980.957,953.125,980.957,0.000
1673934844.953,898.926,899.902,863.770,899.902,0.000
1673934844.957,-948.730,-947.754,-930.664,-947.754,0.000
1673934844.960,701.660,702.148,419.922,702.148,0.000
1673934844.964,-740.234,-739.746,-833.008,-740.234,0.000
1673934844.968,-1000.000,-1000.000,-1000.000,-1000.000,0.000
1673934844.972,-936.523,-936.523,-242.676,-936.523,0.000
1673934844.976,-1000.000,-1000.000,-872.070,-1000.000,0.000
1673934844.980,-1000.000,-1000.000,-40.527,-1000.000,0.000
1673934844.983,-1000.000,-1000.000,-1000.000,-1000.000,0.000
1673934844.988,-1000.000,-1000.000,-1000.000,-1000.000,0.000
1673934844.992,-1000.000,-1000.000,-318.359,-1000.000,0.000
1673934844.996,-1000.000,-1000.000,-863.770,-1000.000,0.000
1673934845.000,-1000.000,-1000.000,46.875,-1000.000,0.000
1673934845.004,-984.375,-980.957,-1000.000,-985.840,0.000
1673934845.007,-964.355,-969.727,-1000.000,-960.938,0.000
1673934845.011,-1000.000,-1000.000,-398.438,-1000.000,0.000
1673934845.015,40.527,84.961,950.195,15.625,0.000
1673934845.019,-910.156,-903.320,983.887,-912.598,0.000
1673934845.023,915.039,911.133,922.363,918.457,0.000
1673934845.027,956.543,960.449,977.539,955.566,0.000
1673934845.031,965.820,966.309,965.820,967.285,0.000
1673934845.035,964.844,965.332,965.332,965.332,0.000
1673934845.039,964.844,965.820,965.332,965.332,0.000
1673934845.043,964.844,965.820,965.332,965.332,0.000
1673934845.047,964.844,965.820,967.773,965.332,0.000
1673934845.051,964.844,965.820,955.566,965.332,0.000
1673934845.054,964.844,965.820,990.234,965.820,0.000
1673934845.058,965.332,966.309,890.137,965.820,0.000
1673934845.062,901.855,902.832,749.512,902.832,0.000
1673934845.066,-897.461,-895.996,-822.266,-895.996,0.000
1673934845.070,185.547,186.523,-25.879,186.523,0.000
1673934845.074,-1000.000,-1000.000,-310.059,-1000.000,0.000
1673934845.077,-984.375,-984.375,664.551,-984.375,0.000
1673934845.082,-973.145,-973.145,-726.074,-973.145,0.000
1673934845.086,-1000.000,-1000.000,-1000.000,-1000.000,0.000
1673934845.090,-1000.000,-1000.000,-1000.000,-1000.000,0.000
1673934845.094,-1000.000,-1000.000,302.246,-1000.000,0.000
1673934845.097,-1000.000,-1000.000,851.074,-1000.000,0.000
1673934845.101,-1000.000,-1000.000,-709.961,-1000.000,0.000
1673934845.105,-1000.000,-1000.000,-1000.000,-1000.000,0.000
1673934845.109,-1000.000,-1000.000,-1000.000,-1000.000,0.000
1673934845.113,-1000.000,-1000.000,229.980,-1000.000,0.000
1673934845.117,-1000.000,-1000.000,-995.605,-1000.000,0.000
1673934845.120,-1000.000,-1000.000,-528.320,-1000.000,0.000
1673934845.124,-937.988,-937.988,-1000.000,-937.988,0.000
1673934845.129,-1000.000,-1000.000,-1000.000,-1000.000,0.000
1673934845.133,-221.680,-221.191,-219.727,-221.191,0.000
1673934845.137,-964.355,-963.379,-960.938,-963.379,0.000
1673934845.140,948.242,949.219,947.754,949.219,0.000
1673934845.144,937.500,937.988,938.965,938.477,0.000
1673934845.148,971.680,972.168,972.168,972.168,0.000
1673934845.152,964.844,965.332,965.332,965.332,0.000
1673934845.156,964.844,965.332,966.797,965.332,0.000
1673934845.160,964.844,965.332,960.938,965.332,0.000
1673934845.164,964.844,965.820,974.121,965.332,0.000
1673934845.167,978.516,978.516,958.008,979.004,0.000
1673934845.171,910.156,913.574,833.984,911.133,0.000
1673934845.176,-982.910,-988.770,-925.293,-981.934,0.000
1673934845.180,826.660,849.609,445.801,827.148,0.000
1673934845.183,-576.660,-541.992,-849.609,-576.660,0.000
1673934845.187,-1000.000,-1000.000,-1000.000,-1000.000,0.000
1673934845.191,-933.594,-933.594,-370.605,-933.105,0.000
1673934845.195,-1000.000,-1000.000,-899.902,-1000.000,0.000
1673934845.199,-1000.000,-1000.000,474.609,-1000.000,0.000
1673934845.203,-1000.000,-1000.000,-898.926,-1000.000,0.000
1673934845.206,-1000.000,-1000.000,-1000.000,-1000.000,0.000
1673934845.210,-1000.000,-1000.000,-419.922,-1000.000,0.000
1673934845.214,-1000.000,-1000.000,-917.480,-1000.000,0.000
1673934845.218,-1000.000,-1000.000,394.043,-1000.000,0.000
1673934845.223,-935.059,-930.664,-955.078,-935.059,0.000
1673934845.226,-1000.000,-1000.000,-1000.000,-1000.000,0.000
1673934845.230,-737.305,-670.898,-494.141,-737.305,0.000
1673934845.234,704.590,777.344,865.234,705.078,0.000
1673934845.238,-952.148,-965.332,-992.676,-951.660,0.000
1673934845.242,900.879,904.297,913.574,901.367,0.000
1673934845.246,979.980,980.957,982.422,980.469,0.000
1673934845.249,964.355,965.332,953.125,965.820,0.000
1673934845.253,968.750,968.262,925.293,969.727,0.000
1673934845.257,945.312,951.172,-937.500,946.289,0.000
1673934845.261,934.082,925.781,-2.930,933.594,0.000
1673934845.265,-937.012,-922.852,-1000.000,-935.547,0.000
1673934845.270,-120.117,-48.828,-1000.000,-114.746,0.000
1673934845.273,-1000.000,-1000.000,-470.703,-1000.000,0.000
1673934845.277,-946.289,-953.613,896.973,-946.777,0.000
1673934845.281,-995.117,-990.234,106.445,-994.629,0.000
1673934845.285,-1000.000,-1000.000,-1000.000,-1000.000,0.000
1673934845.289,-1000.000,-1000.000,-759.766,-1000.000,0.000
1673934845.293,-1000.000,-1000.000,509.277,-1000.000,0.000
1673934845.297,-1000.000,-1000.000,-814.941,-1000.000,0.000
1673934845.300,-1000.000,-1000.000,131.836,-1000.000,0.000
1673934845.304,-1000.000,-1000.000,-1000.000,-1000.000,0.000
1673934845.308,-1000.000,-1000.000,-1000.000,-1000.000,0.000
1673934845.312,-1000.000,-1000.000,59.082,-1000.000,0.000
1673934845.317,-1000.000,-1000.000,-798.828,-1000.000,0.000
1673934845.320,-1000.000,-1000.000,168.457,-1000.000,0.000
1673934845.324,-937.988,-937.988,-1000.000,-937.988,0.000
1673934845.328,-1000.000,-1000.000,-1000.000,-1000.000,0.000
1673934845.332,-221.680,-221.191,43.945,-221.191,0.000
1673934845.336,-964.355,-963.379,-836.426,-963.379,0.000
1673934845.340,948.730,949.219,576.172,949.219,0.000
1673934845.344,937.500,938.477,-859.375,938.477,0.000
1673934845.347,971.680,972.168,-1000.000,972.168,0.000
1673934845.351,964.844,965.820,390.625,965.332,0.000
1673934845.355,964.355,965.820,-909.180,965.332,0.000
1673934845.359,964.844,965.332,870.605,965.332,0.000
1673934845.364,964.844,965.820,-423.828,965.332,0.000
1673934845.367,965.332,965.820,-1000.000,965.820,0.000
1673934845.371,964.355,966.309,310.059,964.355,0.000
1673934845.375,903.809,902.832,-937.988,904.785,0.000
1673934845.379,-898.438,-895.996,976.562,-897.949,0.000
1673934845.383,167.480,186.035,-138.184,158.691,0.000
1673934845.387,-1000.000,-1000.000,-1000.000,-1000.000,0.000
1673934845.391,-981.445,-984.375,-949.219,-980.469,0.000
1673934845.394,-974.609,-973.145,-994.629,-975.586,0.000
1673934845.398,-1000.000,-1000.000,-1000.000,-1000.000,0.000
1673934845.402,-1000.000,-1000.000,-1000.000,-1000.000,0.000
1673934845.406,-1000.000,-1000.000,-1000.000,-1000.000,0.000
1673934845.411,-1000.000,-1000.000,-1000.000,-1000.000,0.000
1673934845.414,-1000.000,-1000.000,-1000.000,-1000.000,0.000
1673934845.418,-1000.000,-1000.000,-1000.000,-1000.000,0.000
1673934845.422,-1000.000,-1000.000,-1000.000,-1000.000,0.000
1673934845.426,-1000.000,-1000.000,-1000.000,-1000.000,0.000
1673934845.430,-1000.000,-1000.000,-1000.000,-1000.000,0.000
1673934845.434,-1000.000,-1000.000,-1000.000,-1000.000,0.000
1673934845.437,-1000.000,-1000.000,-1000.000,-1000.000,0.000
1673934845.441,-1000.000,-1000.000,-1000.000,-1000.000,0.000
1673934845.445,-1000.000,-1000.000,-1000.000,-1000.000,0.000
1673934845.449,-1000.000,-1000.000,-1000.000,-1000.000,0.000
1673934845.453,-1000.000,-1000.000,-1000.000,-1000.000,0.000
1673934845.457,-1000.000,-1000.000,-1000.000,-1000.000,0.000
1673934845.461,-1000.000,-1000.000,-1000.000,-1000.000,0.000
1673934845.465,-1000.000,-1000.000,-1000.000,-1000.000,0.000
1673934845.469,-1000.000,-1000.000,-1000.000,-1000.000,0.000
1673934845.473,-1000.000,-1000.000,-1000.000,-1000.000,0.000
1673934845.477,-1000.000,-1000.000,-1000.000,-1000.000,0.000
1673934845.481,-1000.000,-1000.000,-1000.000,-1000.000,0.000
1673934845.484,-1000.000,-1000.000,-1000.000,-1000.000,0.000
1673934845.488,-1000.000,-1000.000,-994.141,-1000.000,0.000
1673934845.492,-1000.000,-1000.000,-1000.000,-1000.000,0.000
1673934845.496,-1000.000,-1000.000,-980.469,-1000.000,0.000
1673934845.500,-995.117,-995.117,-901.855,-994.629,0.000
1673934845.504,-946.289,-946.289,-946.777,-946.777,0.000
1673934845.508,-1000.000,-1000.000,-1000.000,-1000.000,0.000
1673934845.512,-120.605,-120.117,-96.191,-113.770,0.000
1673934845.516,-937.500,-936.523,-806.641,-935.547,0.000
1673934845.520,934.082,934.570,403.809,934.082,0.000
1673934845.523,945.312,946.289,-884.766,946.289,0.000
1673934845.527,969.238,970.215,-1000.000,969.727,0.000
1673934845.531,964.844,965.820,-153.809,965.820,0.000
1673934845.535,980.469,981.445,-816.895,980.957,0.000
1673934845.539,890.137,892.090,239.746,899.902,0.000
1673934845.543,-915.039,-918.457,-1000.000,-947.266,0.000
1673934845.547,555.664,576.660,-993.164,702.148,0.000
1673934845.551,-895.996,-876.465,-966.797,-740.234,0.000
1673934845.555,-1000.000,-1000.000,-1000.000,-1000.000,0.000
1673934845.559,-954.102,-953.125,-1000.000,-950.195,0.000
1673934845.563,-975.098,-973.633,-932.129,-961.426,0.000
1673934845.566,-1000.000,-1000.000,-1000.000,-1000.000,0.000
1673934845.570,-974.121,-961.914,-602.539,-862.305,0.000
1673934845.574,368.164,388.184,850.098,541.504,0.000
1673934845.578,-899.902,-899.902,914.551,-915.527,0.000
1673934845.582,826.172,825.684,624.023,824.219,0.000
1673934845.586,-890.137,-889.648,-820.312,-888.672,0.000
1673934845.589,354.980,382.324,50.293,426.758,0.000
1673934845.593,-1000.000,-996.094,-379.395,-973.145,0.000
1673934845.598,-1000.000,-1000.000,136.719,-1000.000,0.000
1673934845.602,-959.473,-957.520,-1000.000,-968.750,0.000
1673934845.605,-1000.000,-1000.000,-960.449,-938.965,0.000
1673934845.609,-1000.000,-1000.000,-1000.000,-1000.000,0.000
1673934845.613,-1000.000,-1000.000,-152.344,-560.059,0.000
1673934845.617,-1000.000,-1000.000,456.543,888.672,0.000
1673934845.621,-1000.000,-1000.000,-989.746,926.270,0.000
1673934845.625,-958.984,-955.566,-985.840,-894.043,0.000
1673934845.629,-1000.000,-1000.000,-1000.000,287.598,0.000
1673934845.632,-974.609,-942.871,-388.184,-855.957,0.000
1673934845.636,368.164,417.480,971.191,564.941,0.000
1673934845.640,-908.691,-913.086,976.562,-893.066,0.000
1673934845.645,897.949,898.438,925.781,888.184,0.000
1673934845.648,972.168,974.121,976.562,978.027,0.000
1673934845.652,964.844,965.332,965.332,965.332,0.000
1673934845.656,964.844,965.332,965.820,965.820,0.000
1673934845.660,964.844,965.332,965.332,965.332,0.000
1673934845.664,964.844,965.332,965.332,965.332,0.000
1673934845.668,964.844,965.820,965.820,965.332,0.000
1673934845.671,964.844,965.332,965.332,965.332,0.000
1673934845.675,964.844,965.820,966.797,965.820,0.000
1673934845.679,965.820,966.309,955.566,966.309,0.000
1673934845.683,902.344,903.320,937.988,902.832,0.000
1673934845.687,-896.973,-895.996,-910.156,-895.996,0.000
1673934845.692,186.035,186.035,24.902,186.523,0.000
1673934845.695,-1000.000,-1000.000,63.477,-1000.000,0.000
1673934845.699,-984.375,-984.375,-49.316,-984.375,0.000
1673934845.703,-973.145,-973.145,-1000.000,-973.145,0.000
1673934845.707,-1000.000,-1000.000,-1000.000,-1000.000,0.000
1673934845.711,-1000.000,-1000.000,-393.555,-1000.000,0.000
1673934845.715,-1000.000,-1000.000,-906.250,-1000.000,0.000
1673934845.718,-1000.000,-1000.000,-5.371,-1000.000,0.000
1673934845.722,-1000.000,-1000.000,-1000.000,-1000.000,0.000
1673934845.726,-1000.000,-1000.000,-1000.000,-1000.000,0.000
1673934845.730,-1000.000,-1000.000,-830.078,-1000.000,0.000
1673934845.734,-1000.000,-1000.000,758.789,-1000.000,0.000
1673934845.739,-1000.000,-1000.000,259.277,-1000.000,0.000
1673934845.742,-980.957,-980.469,-1000.000,-973.633,0.000
1673934845.746,-969.727,-970.703,-1000.000,-983.887,0.000
1673934845.750,-1000.000,-1000.000,-828.125,-1000.000,0.000
1673934845.754,84.473,92.773,518.555,183.594,0.000
1673934845.758,-904.297,-902.832,-931.152,-896.484,0.000
1673934845.762,910.645,910.645,901.367,903.320,0.000
1673934845.765,959.473,960.938,976.074,966.309,0.000
1673934845.769,965.332,966.309,965.820,965.820,0.000
1673934845.773,964.355,965.332,965.332,965.332,0.000
1673934845.777,964.844,965.332,965.820,965.332,0.000
1673934845.781,964.844,965.332,965.332,965.332,0.000
1673934845.785,964.844,965.332,965.332,965.332,0.000
1673934845.789,964.844,965.332,965.332,965.332,0.000
1673934845.793,964.844,965.820,965.332,965.332,0.000
1673934845.797,974.609,976.074,973.145,975.586,0.000
1673934845.801,892.090,892.578,891.113,892.578,0.000
1673934845.805,-897.949,-897.461,-824.219,-897.461,0.000
1673934845.809,375.000,382.324,168.457,382.324,0.000
1673934845.812,-999.023,-996.094,-312.012,-996.094,0.000
1673934845.816,-1000.000,-1000.000,975.586,-1000.000,0.000
1673934845.820,-958.008,-957.520,-299.805,-957.520,0.000
1673934845.824,-1000.000,-1000.000,-1000.000,-1000.000,0.000
1673934845.828,-1000.000,-1000.000,-1000.000,-1000.000,0.000
1673934845.832,-1000.000,-1000.000,-156.738,-1000.000,0.000
1673934845.836,-1000.000,-1000.000,-884.277,-1000.000,0.000
1673934845.840,-1000.000,-1000.000,-222.656,-1000.000,0.000
1673934845.844,-1000.000,-1000.000,-1000.000,-1000.000,0.000
1673934845.848,-1000.000,-1000.000,-1000.000,-1000.000,0.000
1673934845.852,-1000.000,-1000.000,-278.320,-1000.000,0.000
1673934845.855,-1000.000,-1000.000,-826.172,-1000.000,0.000
1673934845.859,-1000.000,-1000.000,155.762,-1000.000,0.000
1673934845.863,-931.641,-931.641,-1000.000,-931.641,0.000
1673934845.867,-1000.000,-1000.000,-1000.000,-1000.000,0.000
1673934845.871,-320.801,-320.801,-195.312,-320.801,0.000
1673934845.875,-998.047,-997.070,-969.727,-997.559,0.000
1673934845.879,964.355,965.332,949.219,965.332,0.000
1673934845.883,929.688,930.176,938.477,930.176,0.000
1673934845.887,974.121,975.098,972.168,974.609,0.000
1673934845.891,964.844,965.332,965.332,965.332,0.000
1673934845.895,964.355,965.332,966.309,965.332,0.000
1673934845.898,964.844,965.332,961.426,965.332,0.000
1673934845.902,964.844,965.332,972.168,965.332,0.000
1673934845.906,972.168,972.168,966.309,972.168,0.000
1673934845.910,934.082,938.477,850.586,937.988,0.000
1673934845.914,957.031,949.219,-981.445,949.219,0.000
1673934845.918,-989.258,-963.379,730.469,-963.379,0.000
1673934845.922,-268.066,-221.191,-562.012,-221.191,0.000
1673934845.926,-1000.000,-1000.000,-1000.000,-1000.000,0.000
1673934845.930,-936.523,-937.988,-412.598,-937.988,0.000
1673934845.934,-1000.000,-1000.000,-918.457,-1000.000,0.000
1673934845.938,-1000.000,-1000.000,440.918,-1000.000,0.000
1673934845.941,-1000.000,-1000.000,-933.594,-1000.000,0.000
1673934845.945,-1000.000,-1000.000,-1000.000,-1000.000,0.000
1673934845.949,-1000.000,-1000.000,-434.082,-1000.000,0.000
1673934845.953,-1000.000,-1000.000,-928.223,-1000.000,0.000
1673934845.957,-1000.000,-1000.000,484.863,-1000.000,0.000
1673934845.961,-1000.000,-995.117,-951.172,-995.117,0.000
1673934845.964,-939.941,-946.289,-1000.000,-946.289,0.000
1673934845.968,-1000.000,-1000.000,-980.957,-1000.000,0.000
1673934845.973,-198.242,-120.117,208.984,-120.117,0.000
1673934845.977,-958.008,-936.523,-908.691,-936.523,0.000
1673934845.980,944.824,934.570,906.738,934.570,0.000
1673934845.984,939.453,946.289,966.309,946.289,0.000
1673934845.988,970.703,969.727,962.402,969.727,0.000
1673934845.992,964.844,965.332,965.820,965.820,0.000
1673934845.996,964.355,965.332,977.539,965.332,0.000
1673934846.000,964.844,965.332,796.875,965.332,0.000
1673934846.004,964.844,965.820,876.465,965.820,0.000
1673934846.007,965.332,966.309,783.203,966.309,0.000
1673934846.011,901.855,902.832,725.098,902.832,0.000
1673934846.015,-896.973,-895.996,-870.117,-896.484,0.000
1673934846.020,186.035,186.523,70.801,186.035,0.000
1673934846.024,-1000.000,-1000.000,-1000.000,-1000.000,0.000
1673934846.027,-984.375,-984.375,-1000.000,-984.375,0.000
1673934846.031,-973.145,-973.145,-224.121,-973.145,0.000
1673934846.035,-1000.000,-1000.000,-834.473,-1000.000,0.000
1673934846.039,-1000.000,-1000.000,67.871,-1000.000,0.000
1673934846.043,-1000.000,-1000.000,-1000.000,-1000.000,0.000
1673934846.047,-1000.000,-1000.000,-1000.000,-1000.000,0.000
1673934846.051,-1000.000,-1000.000,-273.438,-1000.000,0.000
1673934846.054,-1000.000,-1000.000,-833.496,-1000.000,0.000
1673934846.058,-1000.000,-1000.000,160.645,-1000.000,0.000
1673934846.062,-925.781,-925.781,-1000.000,-925.781,0.000
1673934846.067,-1000.000,-1000.000,-1000.000,-1000.000,0.000
1673934846.071,-598.145,-598.145,-289.551,-576.172,0.000
1673934846.075,855.957,856.445,993.652,870.605,0.000
1673934846.078,-981.445,-980.469,965.332,-985.352,0.000
1673934846.082,907.227,907.715,930.664,909.668,0.000
1673934846.086,980.957,981.934,974.609,981.445,0.000
1673934846.090,964.844,965.820,965.332,965.332,0.000
1673934846.094,964.844,965.332,968.750,965.820,0.000
1673934846.098,964.355,965.820,949.219,965.332,0.000
1673934846.102,964.844,965.332,994.629,965.332,0.000
1673934846.105,976.074,976.074,923.340,976.074,0.000
1673934846.109,921.875,924.316,659.668,924.316,0.000
1673934846.114,986.816,983.398,-996.582,983.398,0.000
1673934846.118,925.293,939.453,727.051,939.453,0.000
1673934846.122,-424.316,-403.809,-645.996,-403.320,0.000
1673934846.125,-1000.000,-1000.000,-1000.000,-1000.000,0.000
1673934846.129,-933.594,-933.594,-780.762,-933.594,0.000
1673934846.133,-1000.000,-1000.000,594.238,-1000.000,0.000
1673934846.137,-1000.000,-1000.000,963.867,-1000.000,0.000
1673934846.141,-1000.000,-1000.000,-500.977,-1000.000,0.000
1673934846.145,-1000.000,-1000.000,-1000.000,-1000.000,0.000
1673934846.148,-1000.000,-1000.000,-979.492,-1000.000,0.000
1673934846.152,-1000.000,-1000.000,300.781,-1000.000,0.000
1673934846.156,-1000.000,-1000.000,-986.816,-1000.000,0.000
1673934846.161,-1000.000,-1000.000,-496.582,-1000.000,0.000
1673934846.165,-937.988,-937.988,-1000.000,-937.988,0.000
1673934846.169,-1000.000,-1000.000,-1000.000,-1000.000,0.000
1673934846.172,-221.680,-221.191,25.391,-221.191,0.000
1673934846.176,-964.355,-963.379,-916.504,-963.379,0.000
1673934846.180,948.242,949.219,918.945,949.219,0.000
1673934846.184,937.500,938.477,956.543,937.988,0.000
1673934846.188,984.863,985.840,972.168,985.840,0.000
1673934846.192,909.180,911.133,901.855,911.133,0.000
1673934846.195,-978.516,-981.934,-909.668,-981.934,0.000
1673934846.199,812.012,827.148,314.453,827.148,0.000
1673934846.203,-595.215,-576.660,-935.059,-576.660,0.000
1673934846.208,-1000.000,-1000.000,-1000.000,-1000.000,0.000
1673934846.212,-933.594,-933.105,-204.590,-933.105,0.000
1673934846.215,-1000.000,-1000.000,-827.148,-1000.000,0.000
1673934846.219,-1000.000,-1000.000,142.090,-1000.000,0.000
1673934846.223,-1000.000,-1000.000,-1000.000,-1000.000,0.000
1673934846.227,-1000.000,-1000.000,-1000.000,-1000.000,0.000
1673934846.231,-1000.000,-1000.000,-207.031,-1000.000,0.000
1673934846.235,-1000.000,-1000.000,-818.359,-1000.000,0.000
1673934846.238,-1000.000,-1000.000,158.691,-1000.000,0.000
1673934846.242,-925.781,-925.781,-1000.000,-925.781,0.000
1673934846.246,-1000.000,-1000.000,-1000.000,-1000.000,0.000
1673934846.250,-510.254,-510.254,-269.043,-501.953,0.000
1673934846.254,911.621,912.598,-998.047,916.992,0.000
1673934846.258,-1000.000,-999.023,961.914,999.512,0.000
1673934846.262,914.062,915.039,932.129,915.527,0.000
1673934846.266,979.004,979.980,974.121,979.980,0.000
1673934846.270,964.844,965.332,965.332,965.332,0.000
1673934846.274,965.332,965.820,968.750,965.820,0.000
1673934846.278,965.332,966.309,948.242,965.820,0.000
1673934846.281,901.855,902.832,944.336,902.832,0.000
1673934846.285,-896.973,-896.484,-903.320,-895.996,0.000
1673934846.289,186.035,186.035,-181.152,186.035,0.000
1673934846.293,-1000.000,-1000.000,20.508,-1000.000,0.000
1673934846.297,-984.375,-984.375,594.238,-984.375,0.000
1673934846.301,-973.145,-973.145,-895.996,-973.145,0.000
1673934846.305,-1000.000,-1000.000,-1000.000,-1000.000,0.000
1673934846.309,-1000.000,-1000.000,-764.160,-1000.000,0.000
1673934846.313,-1000.000,-1000.000,757.812,-1000.000,0.000
1673934846.317,-1000.000,-1000.000,651.367,-1000.000,0.000
1673934846.321,-1000.000,-1000.000,-894.531,-1000.000,0.000
1673934846.324,-1000.000,-1000.000,-1000.000,-1000.000,0.000
1673934846.328,-1000.000,-1000.000,-1000.000,-1000.000,0.000
1673934846.332,-1000.000,-1000.000,213.379,-1000.000,0.000
1673934846.336,-1000.000,-1000.000,930.664,-1000.000,0.000
1673934846.340,-1000.000,-1000.000,-632.324,-1000.000,0.000
1673934846.344,-937.988,-937.988,-1000.000,-937.988,0.000
1673934846.348,-1000.000,-1000.000,-1000.000,-1000.000,0.000
1673934846.352,-221.680,-221.191,-95.215,-221.191,0.000
1673934846.356,-964.355,-963.379,-934.570,-963.379,0.000
1673934846.360,948.242,949.219,931.641,949.219,0.000
1673934846.363,937.500,938.477,948.242,938.477,0.000
1673934846.367,971.191,972.168,969.727,972.168,0.000
1673934846.371,964.844,965.332,965.820,965.332,0.000
1673934846.375,964.844,965.820,967.773,965.332,0.000
1673934846.379,964.844,965.820,954.102,965.820,0.000
1673934846.383,964.844,965.820,997.559,965.332,0.000
1673934846.387,979.004,981.445,859.375,981.445,0.000
1673934846.390,889.648,890.625,732.422,890.625,0.000
1673934846.395,-908.691,-915.527,-882.324,-915.527,0.000
1673934846.399,499.512,562.988,319.336,562.988,0.000
1673934846.403,-931.641,-891.602,-952.637,-891.602,0.000
1673934846.407,-1000.000,-1000.000,-1000.000,-1000.000,0.000
1673934846.411,-947.754,-942.871,-277.832,-942.871,0.000
1673934846.414,-1000.000,-1000.000,-846.191,-1000.000,0.000
1673934846.418,-1000.000,-1000.000,186.523,-1000.000,0.000
1673934846.422,-1000.000,-1000.000,-1000.000,-1000.000,0.000
1673934846.426,-1000.000,-1000.000,-1000.000,-1000.000,0.000
1673934846.430,-1000.000,-1000.000,-326.660,-1000.000,0.000
1673934846.434,-1000.000,-1000.000,-858.887,-1000.000,0.000
1673934846.438,-1000.000,-1000.000,164.062,-1000.000,0.000
1673934846.442,-955.566,-946.289,-1000.000,-946.289,0.000
1673934846.446,-1000.000,-1000.000,-1000.000,-1000.000,0.000
1673934846.450,-943.359,-862.305,-521.973,-862.305,0.000
1673934846.454,416.016,541.016,858.887,541.504,0.000
1673934846.457,-914.062,-927.246,-990.234,-927.246,0.000
1673934846.461,897.949,898.438,913.086,898.438,0.000
1673934846.465,973.633,977.539,979.492,977.539,0.000
1673934846.469,964.844,965.332,965.332,965.332,0.000
1673934846.473,964.355,965.332,965.332,965.332,0.000
1673934846.477,964.844,965.332,963.867,965.332,0.000
1673934846.481,964.844,965.332,967.285,965.332,0.000
1673934846.484,966.797,967.285,973.145,967.773,0.000
1673934846.489,952.637,954.590,899.414,954.102,0.000
1673934846.493,920.898,919.434,958.984,920.410,0.000
1673934846.497,-917.969,-914.062,943.359,-915.527,0.000
1673934846.501,-18.066,4.883,-253.906,-6.348,0.000
1673934846.504,-1000.000,-1000.000,-1000.000,-1000.000,0.000
1673934846.508,-957.031,-959.473,-806.152,-958.496,0.000
1673934846.512,-988.281,-986.816,579.590,-987.793,0.000
1673934846.516,-1000.000,-1000.000,-991.211,-1000.000,0.000
1673934846.520,-1000.000,-1000.000,-461.914,-1000.000,0.000
1673934846.524,-1000.000,-1000.000,-1000.000,-1000.000,0.000
1673934846.528,-1000.000,-1000.000,-1000.000,-1000.000,0.000
1673934846.531,-1000.000,-1000.000,-19.043,-1000.000,0.000
1673934846.536,-1000.000,-1000.000,955.566,-1000.000,0.000
1673934846.540,-1000.000,-1000.000,-552.734,-1000.000,0.000
1673934846.544,-937.988,-937.988,-1000.000,-937.988,0.000
1673934846.547,-1000.000,-1000.000,-1000.000,-1000.000,0.000
1673934846.551,-221.680,-221.191,-137.695,-221.191,0.000
1673934846.555,-964.355,-963.379,-942.871,-963.379,0.000
1673934846.559,948.730,949.219,937.012,949.219,0.000
1673934846.563,937.500,938.477,945.312,938.477,0.000
1673934846.567,971.680,972.168,970.703,972.168,0.000
1673934846.571,964.844,965.332,965.332,965.332,0.000
1673934846.574,964.844,965.332,971.191,965.332,0.000
1673934846.578,964.844,965.332,937.988,965.332,0.000
1673934846.583,964.844,965.332,-971.191,965.332,0.000
1673934846.587,978.027,979.004,793.945,979.004,0.000
1673934846.590,890.137,890.625,500.488,890.625,0.000
1673934846.594,-904.785,-904.785,-902.832,-904.785,0.000
1673934846.598,466.797,475.098,326.660,475.098,0.000
1673934846.602,-951.660,-947.754,-977.051,-947.754,0.000
1673934846.606,-1000.000,-1000.000,-1000.000,-1000.000,0.000
1673934846.610,-950.684,-949.707,-249.512,-949.707,0.000
1673934846.614,-1000.000,-1000.000,-835.938,-1000.000,0.000
1673934846.617,-1000.000,-1000.000,171.387,-1000.000,0.000
1673934846.621,-1000.000,-1000.000,-1000.000,-1000.000,0.000
1673934846.625,-1000.000,-1000.000,-1000.000,-1000.000,0.000
1673934846.630,-1000.000,-1000.000,-546.387,-1000.000,0.000
1673934846.633,-1000.000,-1000.000,-977.539,-1000.000,0.000
1673934846.637,-1000.000,-1000.000,420.898,-1000.000,0.000
1673934846.641,-946.289,-946.289,-959.473,-944.824,0.000
1673934846.645,-1000.000,-1000.000,-1000.000,-1000.000,0.000
1673934846.649,-862.305,-862.305,-465.820,-847.656,0.000
1673934846.653,540.527,541.504,887.695,560.547,0.000
1673934846.657,-928.223,-927.246,-998.047,-930.176,0.000
1673934846.660,897.461,898.438,915.527,898.926,0.000
1673934846.664,976.562,977.539,982.422,978.027,0.000
1673934846.668,964.844,965.820,958.008,965.820,0.000
1673934846.672,965.332,965.820,931.641,965.820,0.000
1673934846.676,901.855,902.832,-993.164,902.832,0.000
1673934846.680,-896.973,-895.996,247.070,-895.996,0.000
1673934846.684,186.035,186.523,-884.277,186.035,0.000
1673934846.688,-1000.000,-1000.000,-1000.000,-1000.000,0.000
1673934846.692,-984.375,-984.375,129.883,-984.375,0.000
1673934846.696,-973.145,-973.145,-881.836,-973.145,0.000
1673934846.699,-1000.000,-1000.000,-257.812,-1000.000,0.000
1673934846.703,-1000.000,-1000.000,-1000.000,-1000.000,0.000
1673934846.707,-1000.000,-1000.000,-1000.000,-1000.000,0.000
1673934846.711,-1000.000,-1000.000,-81.543,-1000.000,0.000
1673934846.715,-1000.000,-1000.000,-909.180,-1000.000,0.000
1673934846.719,-1000.000,-1000.000,-307.129,-1000.000,0.000
1673934846.723,-937.988,-937.988,-1000.000,-937.988,0.000
1673934846.727,-1000.000,-1000.000,-1000.000,-1000.000,0.000
1673934846.731,-221.680,-221.191,-177.246,-221.191,0.000
1673934846.735,-964.355,-963.379,-953.125,-963.379,0.000
1673934846.738,948.730,949.219,943.359,949.219,0.000
1673934846.742,937.500,938.477,941.406,937.988,0.000
1673934846.746,971.680,972.168,971.191,972.168,0.000
1673934846.750,964.844,965.332,965.820,965.332,0.000
1673934846.754,964.355,965.332,971.680,965.332,0.000
1673934846.758,964.844,965.332,932.617,965.332,0.000
1673934846.762,964.355,965.332,-962.402,965.332,0.000
1673934846.765,979.980,981.445,758.301,981.445,0.000
1673934846.770,890.137,891.113,449.707,890.625,0.000
1673934846.774,-913.574,-915.527,-899.902,-915.527,0.000
1673934846.778,536.621,562.988,364.258,562.988,0.000
1673934846.782,-907.715,-891.602,-954.102,-891.602,0.000
1673934846.786,-1000.000,-1000.000,-1000.000,-1000.000,0.000
1673934846.789,-944.824,-942.871,-301.758,-942.871,0.000
1673934846.793,-1000.000,-1000.000,-855.957,-1000.000,0.000
1673934846.797,-1000.000,-1000.000,223.145,-1000.000,0.000
1673934846.801,-1000.000,-1000.000,-1000.000,-1000.000,0.000
1673934846.805,-1000.000,-1000.000,-1000.000,-1000.000,0.000
1673934846.809,-1000.000,-1000.000,-552.734,-1000.000,0.000
1673934846.813,-1000.000,-1000.000,-981.934,-1000.000,0.000
1673934846.817,-1000.000,-1000.000,325.195,-1000.000,0.000
1673934846.821,-973.145,-973.145,-1000.000,-972.656,0.000
1673934846.825,-984.375,-984.375,-1000.000,-985.840,0.000
1673934846.829,-1000.000,-1000.000,-710.938,-1000.000,0.000
1673934846.833,185.547,186.523,657.227,194.824,0.000
1673934846.836,-896.973,-895.996,-951.172,-896.484,0.000
1673934846.840,901.855,902.832,903.320,902.344,0.000
1673934846.844,965.332,966.309,979.004,966.309,0.000
1673934846.848,964.844,965.820,962.891,965.820,0.000
1673934846.852,964.844,965.332,970.703,965.332,0.000
1673934846.856,964.844,964.844,944.824,965.332,0.000
1673934846.860,964.844,965.332,933.594,965.332,0.000
1673934846.864,965.332,965.820,-997.070,965.820,0.000
1673934846.868,965.332,966.309,619.629,966.309,0.000
1673934846.872,901.855,902.832,697.754,902.832,0.000
1673934846.876,-896.973,-895.996,-876.953,-896.484,0.000
1673934846.879,186.035,186.523,-35.645,186.035,0.000
1673934846.883,-1000.000,-1000.000,-1000.000,-1000.000,0.000
1673934846.887,-984.375,-984.375,-1000.000,-984.375,0.000
1673934846.891,-973.145,-973.145,13.672,-973.145,0.000
1673934846.895,-1000.000,-1000.000,-854.980,-1000.000,0.000
1673934846.899,-1000.000,-1000.000,-166.504,-1000.000,0.000
1673934846.903,-1000.000,-1000.000,-1000.000,-1000.000,0.000
1673934846.906,-1000.000,-1000.000,-1000.000,-1000.000,0.000
1673934846.911,-1000.000,-1000.000,-151.367,-1000.000,0.000
1673934846.915,-1000.000,-1000.000,-825.684,-1000.000,0.000
1673934846.919,-1000.000,-1000.000,-27.832,-1000.000,0.000
1673934846.922,-933.105,-937.500,-1000.000,-937.988,0.000
1673934846.926,-1000.000,-1000.000,-1000.000,-1000.000,0.000
1673934846.930,-296.875,-223.633,-200.684,-221.191,0.000
1673934846.934,-989.746,-964.355,-964.844,-963.379,0.000
1673934846.938,960.938,949.707,948.242,949.219,0.000
1673934846.942,931.641,938.477,938.965,938.477,0.000
1673934846.946,973.633,972.168,973.633,972.168,0.000
1673934846.949,964.844,965.332,949.707,965.332,0.000
1673934846.953,964.844,965.332,-988.770,965.332,0.000
1673934846.958,964.844,965.332,790.527,965.332,0.000
1673934846.962,964.844,965.820,741.211,965.820,0.000
1673934846.965,978.516,978.027,835.938,978.516,0.000
1673934846.969,910.645,915.039,546.387,913.574,0.000
1673934846.973,-982.910,-992.676,-963.867,-987.793,0.000
1673934846.977,826.660,861.816,606.445,846.680,0.000
1673934846.981,-576.660,-523.438,-769.043,-546.875,0.000
1673934846.985,-1000.000,-1000.000,-1000.000,-1000.000,0.000
1673934846.989,-933.594,-933.594,-371.094,-933.594,0.000
1673934846.992,-1000.000,-1000.000,-897.949,-1000.000,0.000
1673934846.996,-1000.000,-1000.000,332.031,-1000.000,0.000
1673934847.000,-1000.000,-1000.000,-988.770,-1000.000,0.000
1673934847.005,-1000.000,-1000.000,-1000.000,-1000.000,0.000
1673934847.008,-1000.000,-1000.000,-793.945,-1000.000,0.000
1673934847.012,-1000.000,-1000.000,760.742,-1000.000,0.000
1673934847.016,-1000.000,-1000.000,572.266,-1000.000,0.000
1673934847.020,-982.910,-980.957,-933.105,-980.957,0.000
1673934847.024,-966.309,-969.727,-1000.000,-969.727,0.000
1673934847.028,-1000.000,-1000.000,-838.379,-1000.000,0.000
1673934847.032,56.641,84.961,462.402,84.961,0.000
1673934847.035,-908.203,-903.320,-924.805,-903.809,0.000
1673934847.039,913.086,911.621,900.879,911.133,0.000
1673934847.043,957.520,959.961,974.609,959.961,0.000
1673934847.047,965.820,966.309,965.332,966.309,0.000
1673934847.051,964.844,965.332,965.820,965.332,0.000
1673934847.055,980.469,981.445,972.656,981.445,0.000
1673934847.059,890.137,891.113,883.301,890.625,0.000
1673934847.063,-915.527,-915.527,-837.891,-915.527,0.000
1673934847.067,554.199,562.988,247.070,562.988,0.000
1673934847.071,-896.484,-891.602,-557.129,-891.602,0.000
1673934847.075,-1000.000,-1000.000,931.152,-1000.000,0.000
1673934847.078,-943.359,-942.871,88.379,-942.871,0.000
1673934847.082,-1000.000,-1000.000,-1000.000,-1000.000,0.000
1673934847.086,-1000.000,-1000.000,-1000.000,-1000.000,0.000
1673934847.090,-1000.000,-1000.000,-169.922,-1000.000,0.000
1673934847.094,-1000.000,-1000.000,-830.566,-1000.000,0.000
1673934847.098,-1000.000,-1000.000,-18.555,-1000.000,0.000
1673934847.102,-1000.000,-1000.000,-1000.000,-1000.000,0.000
1673934847.106,-1000.000,-1000.000,-1000.000,-1000.000,0.000
1673934847.110,-1000.000,-1000.000,-264.648,-1000.000,0.000
1673934847.114,-1000.000,-1000.000,-827.637,-1000.000,0.000
1673934847.117,-1000.000,-1000.000,153.320,-1000.000,0.000
1673934847.121,-925.781,-925.781,-1000.000,-925.781,0.000
1673934847.125,-1000.000,-1000.000,-1000.000,-1000.000,0.000
1673934847.129,-510.254,-510.254,-287.598,-510.254,0.000
1673934847.133,911.621,912.598,994.141,912.598,0.000
1673934847.137,-1000.000,-999.512,964.844,-999.023,0.000
1673934847.141,914.062,914.551,930.664,914.551,0.000
1673934847.145,979.004,979.980,974.609,979.980,0.000
1673934847.149,964.844,965.332,965.332,965.820,0.000
1673934847.153,964.844,965.332,965.820,965.332,0.000
1673934847.157,964.355,965.332,964.355,965.332,0.000
1673934847.161,964.355,965.332,967.285,965.332,0.000
1673934847.164,969.238,969.727,974.121,969.727,0.000
1673934847.168,943.848,945.801,895.508,945.801,0.000
1673934847.172,936.523,934.570,-979.980,934.570,0.000
1673934847.176,-942.871,-936.523,747.559,-936.523,0.000
1673934847.180,-140.625,-119.629,-543.457,-120.117,0.000
1673934847.184,-1000.000,-1000.000,-1000.000,-1000.000,0.000
1673934847.188,-944.336,-946.289,-840.820,-946.289,0.000
1673934847.192,-996.582,-995.117,644.531,-995.117,0.000
1673934847.196,-1000.000,-1000.000,642.090,-1000.000,0.000
1673934847.200,-1000.000,-1000.000,-886.719,-1000.000,0.000
1673934847.204,-1000.000,-1000.000,-1000.000,-1000.000,0.000
1673934847.208,-1000.000,-1000.000,-910.645,-1000.000,0.000
1673934847.211,-1000.000,-1000.000,535.156,-1000.000,0.000
1673934847.215,-1000.000,-1000.000,767.578,-1000.000,0.000
1673934847.219,-1000.000,-1000.000,-807.129,-1000.000,0.000
1673934847.223,-937.988,-937.988,-1000.000,-938.477,0.000
1673934847.227,-1000.000,-1000.000,-1000.000,-1000.000,0.000
1673934847.231,-221.680,-221.191,110.352,-215.820,0.000
1673934847.235,-964.355,-963.379,-912.109,-961.914,0.000
1673934847.239,948.242,949.219,912.598,948.242,0.000
1673934847.243,937.500,938.477,960.449,938.477,0.000
1673934847.247,971.680,972.168,966.797,972.168,0.000
1673934847.251,964.844,965.332,965.332,965.332,0.000
1673934847.254,964.844,965.332,966.797,965.332,0.000
1673934847.258,964.844,965.332,950.195,965.332,0.000
1673934847.262,964.844,965.820,-983.887,965.820,0.000
1673934847.266,965.332,966.309,749.512,966.309,0.000
1673934847.270,902.344,902.832,644.531,902.832,0.000
1673934847.274,-896.973,-896.484,-860.840,-895.996,0.000
1673934847.278,186.035,186.523,151.367,186.035,0.000
1673934847.282,-1000.000,-1000.000,-1000.000,-1000.000,0.000
1673934847.286,-984.375,-984.375,-1000.000,-984.375,0.000
1673934847.290,-973.145,-973.145,-266.113,-973.145,0.000
1673934847.294,-1000.000,-1000.000,-837.402,-1000.000,0.000
1673934847.298,-1000.000,-1000.000,144.531,-1000.000,0.000
1673934847.301,-1000.000,-1000.000,-1000.000,-1000.000,0.000
1673934847.305,-1000.000,-1000.000,-1000.000,-1000.000,0.000
1673934847.309,-1000.000,-1000.000,-262.695,-1000.000,0.000
1673934847.313,-1000.000,-1000.000,-832.520,-1000.000,0.000
1673934847.317,-1000.000,-1000.000,163.574,-1000.000,0.000
1673934847.321,-935.059,-935.059,-1000.000,-932.617,0.000
1673934847.325,-1000.000,-1000.000,-1000.000,-1000.000,0.000
1673934847.328,-737.305,-737.305,-335.449,-699.219,0.000
1673934847.333,704.102,705.078,973.145,746.582,0.000
1673934847.337,-952.637,-951.660,973.633,-959.473,0.000
1673934847.341,900.391,901.367,926.758,903.320,0.000
1673934847.344,979.492,980.469,976.074,980.957,0.000
1673934847.348,964.844,965.332,965.332,965.332,0.000
1673934847.352,964.844,965.332,966.797,965.332,0.000
1673934847.356,964.844,965.332,952.148,965.332,0.000
1673934847.360,964.844,965.332,978.516,965.332,0.000
1673934847.364,971.680,972.168,966.797,972.168,0.000
1673934847.368,936.035,938.477,687.500,938.477,0.000
1673934847.371,952.148,949.219,945.801,949.219,0.000
1673934847.375,-975.098,-963.379,818.848,-963.379,0.000
1673934847.380,-241.699,-221.191,-546.875,-221.191,0.000
1673934847.383,-1000.000,-1000.000,-1000.000,-1000.000,0.000
1673934847.387,-937.500,-937.988,-860.840,-937.988,0.000
1673934847.391,-1000.000,-1000.000,568.359,-1000.000,0.000
1673934847.395,-1000.000,-1000.000,805.664,-1000.000,0.000
1673934847.399,-1000.000,-1000.000,-745.605,-1000.000,0.000
1673934847.403,-1000.000,-1000.000,-1000.000,-1000.000,0.000
1673934847.407,-1000.000,-1000.000,-1000.000,-1000.000,0.000
1673934847.411,-1000.000,-1000.000,211.426,-1000.000,0.000
1673934847.414,-1000.000,-1000.000,-993.164,-1000.000,0.000
1673934847.418,-1000.000,-1000.000,-521.484,-1000.000,0.000
1673934847.422,-937.988,-937.988,-1000.000,-937.988,0.000
1673934847.426,-1000.000,-1000.000,-1000.000,-1000.000,0.000
1673934847.430,-221.680,-221.191,-137.695,-221.191,0.000
1673934847.434,-964.355,-963.379,-942.871,-963.379,0.000
1673934847.438,948.730,949.219,937.012,949.219,0.000
1673934847.442,937.500,938.477,945.312,938.477,0.000
1673934847.446,971.191,972.168,971.680,972.168,0.000
1673934847.450,964.844,965.820,944.824,965.820,0.000
1673934847.453,965.332,966.309,996.094,966.309,0.000
1673934847.457,902.344,902.832,715.332,902.832,0.000
1673934847.461,-896.973,-895.996,296.875,-895.996,0.000
1673934847.465,185.547,186.523,-620.117,186.523,0.000
1673934847.469,-1000.000,-1000.000,-471.191,-1000.000,0.000
1673934847.473,-984.375,-984.375,-881.836,-984.375,0.000
1673934847.477,-973.145,-973.145,148.438,-973.145,0.000
1673934847.481,-1000.000,-1000.000,-1000.000,-1000.000,0.000
1673934847.485,-1000.000,-1000.000,-1000.000,-1000.000,0.000
1673934847.489,-1000.000,-1000.000,-333.496,-1000.000,0.000
1673934847.492,-1000.000,-1000.000,-856.445,-1000.000,0.000
1673934847.496,-1000.000,-1000.000,198.730,-1000.000,0.000
1673934847.500,-933.594,-928.711,-1000.000,-925.781,0.000
1673934847.504,-1000.000,-1000.000,-1000.000,-1000.000,0.000
1673934847.508,-718.750,-638.184,-337.891,-598.145,0.000
1673934847.512,724.121,812.500,971.191,856.445,0.000
1673934847.516,-956.055,-972.168,974.609,-980.957,0.000
1673934847.520,901.367,905.762,926.270,907.715,0.000
1673934847.524,979.492,981.445,979.492,981.445,0.000
1673934847.528,964.844,965.332,952.637,965.332,0.000
1673934847.531,979.980,981.445,973.633,980.957,0.000
1673934847.535,890.137,891.113,880.859,891.113,0.000
1673934847.539,-912.598,-915.527,591.309,-915.527,0.000
1673934847.543,535.156,562.988,-281.738,562.988,0.000
1673934847.547,-908.691,-891.602,-1000.000,-891.113,0.000
1673934847.551,-1000.000,-1000.000,435.547,-1000.000,0.000
1673934847.555,-944.824,-942.871,779.297,-942.871,0.000
1673934847.559,-1000.000,-1000.000,-787.109,-1000.000,0.000
1673934847.562,-1000.000,-1000.000,-1000.000,-1000.000,0.000
1673934847.567,-1000.000,-1000.000,-988.770,-1000.000,0.000
1673934847.571,-1000.000,-1000.000,294.922,-1000.000,0.000
1673934847.575,-1000.000,-1000.000,996.582,-1000.000,0.000
1673934847.578,-995.117,-995.117,-499.512,-992.676,0.000
1673934847.582,-946.289,-946.289,-1000.000,-950.195,0.000
1673934847.586,-1000.000,-1000.000,-936.035,-1000.000,0.000
1673934847.590,-120.117,-119.629,282.227,-80.566,0.000
1673934847.594,-937.500,-936.523,-909.668,-929.199,0.000
1673934847.598,933.594,934.570,903.320,929.688,0.000
1673934847.602,945.312,945.801,968.750,948.730,0.000
1673934847.606,968.750,969.727,968.262,968.750,0.000
1673934847.609,967.285,967.773,929.199,967.773,0.000
1673934847.614,951.172,953.125,-992.188,953.613,0.000
1673934847.618,923.828,921.875,660.645,921.875,0.000
1673934847.622,-922.363,-916.992,-448.730,-916.992,0.000
1673934847.625,-41.504,-17.578,-1000.000,-17.578,0.000
1673934847.629,-1000.000,-1000.000,-204.590,-1000.000,0.000
1673934847.633,-954.590,-957.031,-814.453,-957.031,0.000
1673934847.637,-989.746,-988.281,126.465,-988.281,0.000
1673934847.641,-1000.000,-1000.000,-1000.000,-1000.000,0.000
1673934847.645,-1000.000,-1000.000,-1000.000,-1000.000,0.000
1673934847.649,-1000.000,-1000.000,-250.977,-1000.000,0.000
1673934847.652,-1000.000,-1000.000,-832.031,-1000.000,0.000
1673934847.656,-1000.000,-1000.000,127.441,-1000.000,0.000
1673934847.661,-925.781,-925.781,-1000.000,-925.781,0.000
1673934847.665,-1000.000,-1000.000,-1000.000,-1000.000,0.000
1673934847.668,-598.145,-598.145,-326.660,-598.145,0.000
1673934847.672,855.957,856.445,979.004,856.445,0.000
1673934847.676,-981.445,-980.469,971.680,-980.957,0.000
1673934847.680,907.227,907.715,927.734,907.715,0.000
1673934847.684,980.957,981.934,976.562,981.934,0.000
1673934847.688,964.844,965.332,960.449,965.332,0.000
1673934847.692,964.355,965.332,979.980,965.332,0.000
1673934847.695,964.844,965.332,911.621,965.332,0.000
1673934847.699,964.844,965.820,911.621,965.332,0.000
1673934847.703,972.656,972.168,957.031,972.168,0.000
1673934847.708,934.082,937.988,726.074,937.988,0.000
1673934847.711,956.543,949.219,994.141,949.219,0.000
1673934847.715,-986.816,-963.379,728.516,-963.379,0.000
1673934847.719,-263.672,-221.191,-610.840,-221.191,0.000
1673934847.723,-1000.000,-1000.000,-1000.000,-1000.000,0.000
1673934847.727,-937.012,-937.988,-570.801,-937.988,0.000
1673934847.731,-1000.000,-1000.000,895.996,-1000.000,0.000
1673934847.735,-1000.000,-1000.000,754.395,-1000.000,0.000
1673934847.738,-1000.000,-1000.000,-715.820,-1000.000,0.000
1673934847.742,-1000.000,-1000.000,-1000.000,-1000.000,0.000
1673934847.746,-1000.000,-1000.000,-972.656,-1000.000,0.000
1673934847.750,-1000.000,-1000.000,438.965,-1000.000,0.000
1673934847.754,-1000.000,-1000.000,738.770,-1000.000,0.000
1673934847.758,-1000.000,-1000.000,-868.652,-1000.000,0.000
1673934847.762,-937.988,-937.988,-1000.000,-937.988,0.000
1673934847.766,-1000.000,-1000.000,-1000.000,-1000.000,0.000
1673934847.770,-221.680,-221.191,-102.051,-221.191,0.000
1673934847.774,-964.355,-963.379,-935.059,-963.379,0.000
1673934847.778,948.730,949.219,932.129,949.219,0.000
1673934847.781,937.500,938.477,948.242,937.988,0.000
1673934847.785,971.191,972.168,969.238,972.168,0.000
1673934847.789,964.355,965.332,965.332,965.820,0.000
1673934847.793,964.844,965.820,967.773,965.332,0.000
1673934847.797,964.844,965.332,948.730,965.332,0.000
1673934847.801,964.844,965.332,-983.887,965.332,0.000
1673934847.805,969.727,971.680,772.949,971.191,0.000
1673934847.809,896.484,896.484,641.602,896.484,0.000
1673934847.813,-895.020,-894.043,-865.723,-894.043,0.000
1673934847.817,272.461,285.645,190.918,285.645,0.000
1673934847.821,-1000.000,-1000.000,-1000.000,-1000.000,0.000
1673934847.824,-998.047,-1000.000,-1000.000,-1000.000,0.000
1673934847.828,-966.309,-965.332,-218.262,-965.332,0.000
1673934847.832,-1000.000,-1000.000,-829.590,-1000.000,0.000
1673934847.836,-1000.000,-1000.000,99.121,-1000.000,0.000
1673934847.840,-1000.000,-1000.000,-1000.000,-1000.000,0.000
1673934847.844,-1000.000,-1000.000,-1000.000,-1000.000,0.000
1673934847.848,-1000.000,-1000.000,-404.785,-1000.000,0.000
1673934847.852,-1000.000,-1000.000,-888.184,-1000.000,0.000
1673934847.856,-1000.000,-1000.000,191.406,-1000.000,0.000
1673934847.860,-925.781,-925.781,-1000.000,-925.781,0.000
1673934847.863,-1000.000,-1000.000,-1000.000,-1000.000,0.000
1673934847.867,-510.254,-510.254,-258.301,-500.488,0.000
1673934847.871,912.109,912.598,-993.652,917.969,0.000
1673934847.875,-1000.000,-999.023,959.961,999.023,0.000
1673934847.879,914.062,914.551,933.105,915.527,0.000
1673934847.883,979.492,979.980,974.121,979.980,0.000
1673934847.887,964.844,965.332,964.844,965.332,0.000
1673934847.890,964.844,965.820,968.750,965.820,0.000
1673934847.895,965.332,966.309,951.172,966.309,0.000
1673934847.899,901.855,902.832,911.621,902.832,0.000
1673934847.903,-896.973,-896.484,-849.121,-895.996,0.000
1673934847.907,186.035,186.035,-99.609,186.523,0.000
1673934847.910,-1000.000,-1000.000,-230.469,-1000.000,0.000
1673934847.914,-984.375,-984.375,926.758,-984.375,0.000
1673934847.918,-973.145,-973.145,-510.254,-973.145,0.000
1673934847.922,-1000.000,-1000.000,-1000.000,-1000.000,0.000
1673934847.926,-1000.000,-1000.000,-1000.000,-1000.000,0.000
1673934847.930,-1000.000,-1000.000,217.285,-1000.000,0.000
1673934847.934,-1000.000,-1000.000,866.699,-1000.000,0.000
1673934847.937,-1000.000,-1000.000,-699.707,-1000.000,0.000
1673934847.942,-1000.000,-1000.000,-1000.000,-1000.000,0.000
1673934847.946,-1000.000,-1000.000,-1000.000,-1000.000,0.000
1673934847.950,-1000.000,-1000.000,27.832,-1000.000,0.000
1673934847.954,-1000.000,-1000.000,-979.492,-1000.000,0.000
1673934847.957,-1000.000,-1000.000,-472.656,-1000.000,0.000
1673934847.961,-937.988,-937.988,-1000.000,-937.988,0.000
1673934847.965,-1000.000,-1000.000,-1000.000,-1000.000,0.000
1673934847.969,-221.680,-221.191,-185.547,-221.191,0.000
1673934847.973,-964.355,-963.379,-953.125,-963.379,0.000
1673934847.977,948.730,949.219,943.359,949.219,0.000
1673934847.981,937.500,938.477,941.406,938.477,0.000
1673934847.984,971.680,972.168,971.191,972.168,0.000
1673934847.989,964.844,965.332,965.332,965.332,0.000
1673934847.993,964.844,965.332,967.773,965.332,0.000
1673934847.997,964.355,965.820,956.543,965.820,0.000
1673934848.000,964.844,965.332,984.863,965.820,0.000
1673934848.004,980.469,979.980,926.758,980.469,0.000
1673934848.008,898.926,905.273,776.855,902.344,0.000
1673934848.012,-948.730,-964.355,-911.133,-954.590,0.000
1673934848.016,701.660,763.184,396.973,727.051,0.000
1673934848.020,-740.234,-659.668,-898.926,-707.520,0.000
1673934848.024,-1000.000,-1000.000,-1000.000,-1000.000,0.000
1673934848.028,-936.523,-935.059,-382.812,-936.035,0.000
1673934848.031,-1000.000,-1000.000,-896.484,-1000.000,0.000
1673934848.036,-1000.000,-1000.000,196.777,-1000.000,0.000
1673934848.040,-1000.000,-1000.000,-1000.000,-1000.000,0.000
1673934848.043,-1000.000,-1000.000,-1000.000,-1000.000,0.000
1673934848.047,-1000.000,-1000.000,-336.914,-1000.000,0.000
1673934848.051,-1000.000,-1000.000,-864.746,-1000.000,0.000
1673934848.055,-1000.000,-1000.000,404.785,-1000.000,0.000
1673934848.059,-980.957,-980.957,-949.219,-979.980,0.000
1673934848.063,-969.727,-969.727,-1000.000,-971.680,0.000
1673934848.067,-1000.000,-1000.000,-784.180,-1000.000,0.000
1673934848.071,84.473,84.961,541.016,100.586,0.000
1673934848.074,-904.297,-903.320,-936.035,-902.344,0.000
1673934848.078,910.156,911.621,901.855,910.156,0.000
1673934848.083,959.473,959.961,976.562,960.938,0.000
1673934848.086,965.820,966.309,964.844,966.309,0.000
1673934848.090,964.844,965.332,967.285,965.332,0.000
1673934848.094,964.355,965.332,958.496,965.332,0.000
1673934848.098,964.355,965.332,957.520,965.332,0.000
1673934848.102,966.797,967.773,973.633,967.773,0.000
1673934848.106,952.637,953.125,905.273,953.125,0.000
1673934848.110,920.898,921.875,958.496,921.875,0.000
1673934848.114,-917.969,-916.992,968.750,-916.992,0.000
1673934848.117,-18.066,-17.578,-288.086,-17.578,0.000
1673934848.121,-1000.000,-1000.000,-1000.000,-1000.000,0.000
1673934848.125,-957.031,-957.031,-1000.000,-957.031,0.000
1673934848.129,-988.281,-988.281,-41.016,-988.281,0.000
1673934848.133,-1000.000,-1000.000,-906.250,-1000.000,0.000
1673934848.137,-1000.000,-1000.000,-300.293,-1000.000,0.000
1673934848.141,-1000.000,-1000.000,-1000.000,-1000.000,0.000
1673934848.145,-1000.000,-1000.000,-1000.000,-1000.000,0.000
1673934848.149,-1000.000,-1000.000,-160.156,-1000.000,0.000
1673934848.153,-1000.000,-1000.000,-825.195,-1000.000,0.000
1673934848.157,-1000.000,-1000.000,-31.250,-1000.000,0.000
1673934848.160,-937.988,-937.988,-1000.000,-937.988,0.000
1673934848.164,-1000.000,-1000.000,-1000.000,-1000.000,0.000
1673934848.168,-221.680,-221.191,-175.293,-221.191,0.000
1673934848.172,-964.355,-963.379,-958.496,-963.379,0.000
1673934848.176,948.242,949.219,944.824,949.219,0.000
1673934848.180,937.500,937.988,940.430,937.988,0.000
1673934848.184,971.680,972.168,971.191,972.168,0.000
1673934848.188,964.844,965.332,965.332,965.332,0.000
1673934848.192,964.355,965.332,970.703,965.332,0.000
1673934848.196,964.844,965.332,940.918,965.332,0.000
1673934848.199,964.355,965.820,-984.375,965.332,0.000
1673934848.203,979.980,980.957,853.516,980.957,0.000
1673934848.207,899.414,899.902,549.805,899.902,0.000
1673934848.211,-948.730,-947.754,-933.105,-947.754,0.000
1673934848.215,701.172,702.148,445.801,702.148,0.000
1673934848.219,-740.234,-740.234,-891.602,-740.234,0.000
1673934848.223,-1000.000,-1000.000,-1000.000,-1000.000,0.000
1673934848.227,-936.523,-936.523,-467.773,-936.523,0.000
1673934848.231,-1000.000,-1000.000,-947.754,-1000.000,0.000
1673934848.235,-1000.000,-1000.000,279.785,-1000.000,0.000
1673934848.239,-1000.000,-1000.000,-1000.000,-1000.000,0.000
1673934848.242,-1000.000,-1000.000,-1000.000,-1000.000,0.000
1673934848.246,-1000.000,-1000.000,-592.773,-1000.000,0.000
1673934848.250,-1000.000,-1000.000,982.910,-1000.000,0.000
1673934848.254,-1000.000,-1000.000,432.617,-1000.000,0.000
1673934848.258,-988.281,-988.281,-986.816,-984.375,0.000
1673934848.262,-957.031,-957.520,-1000.000,-963.867,0.000
1673934848.266,-1000.000,-1000.000,-850.098,-1000.000,0.000
1673934848.270,-17.578,-14.160,455.566,37.109,0.000
1673934848.274,-917.969,-916.504,-924.316,-909.668,0.000
1673934848.278,920.898,921.387,901.367,916.016,0.000
1673934848.282,952.637,953.613,975.098,957.031,0.000
1673934848.286,966.797,967.773,962.402,966.797,0.000
1673934848.289,964.844,965.332,959.961,965.332,0.000
1673934848.293,964.844,965.332,990.723,965.332,0.000
1673934848.297,964.844,965.332,738.281,965.332,0.000
1673934848.301,964.844,965.820,779.785,965.820,0.000
1673934848.305,965.332,966.309,730.469,966.309,0.000
1673934848.309,901.855,902.832,695.801,902.832,0.000
1673934848.313,-896.973,-895.996,-867.188,-895.996,0.000
1673934848.317,186.035,186.523,64.941,186.035,0.000
1673934848.321,-1000.000,-1000.000,-1000.000,-1000.000,0.000
1673934848.325,-984.375,-984.375,-1000.000,-984.375,0.000
1673934848.329,-973.145,-973.145,-109.375,-973.145,0.000
1673934848.333,-1000.000,-1000.000,-817.871,-1000.000,0.000
1673934848.336,-1000.000,-1000.000,27.344,-1000.000,0.000
1673934848.340,-1000.000,-1000.000,-1000.000,-1000.000,0.000
1673934848.344,-1000.000,-1000.000,-1000.000,-1000.000,0.000
1673934848.348,-1000.000,-1000.000,-236.816,-1000.000,0.000
1673934848.352,-1000.000,-1000.000,-829.102,-1000.000,0.000
1673934848.356,-1000.000,-1000.000,104.492,-1000.000,0.000
1673934848.360,-925.781,-925.781,-1000.000,-926.758,0.000
1673934848.364,-1000.000,-1000.000,-1000.000,-1000.000,0.000
1673934848.368,-510.254,-510.254,-225.098,-467.773,0.000
1673934848.372,911.621,912.598,-978.027,934.570,0.000
1673934848.376,-1000.000,-999.023,953.613,992.676,0.000
1673934848.379,914.062,915.039,936.035,917.969,0.000
1673934848.383,979.004,979.980,974.121,979.004,0.000
1673934848.387,964.844,965.332,955.566,965.332,0.000
1673934848.391,967.285,967.773,996.582,967.773,0.000
1673934848.395,952.148,953.613,844.727,953.125,0.000
1673934848.399,922.363,921.875,846.680,921.875,0.000
1673934848.403,-919.922,-916.992,860.840,-916.992,0.000
1673934848.407,-27.344,-17.578,-500.000,-17.578,0.000
1673934848.411,-1000.000,-1000.000,150.879,-1000.000,0.000
1673934848.415,-956.055,-957.031,419.434,-957.031,0.000
1673934848.419,-989.258,-988.281,-1000.000,-988.281,0.000
1673934848.422,-1000.000,-1000.000,-1000.000,-1000.000,0.000
1673934848.426,-1000.000,-1000.000,-766.602,-1000.000,0.000
1673934848.430,-1000.000,-1000.000,793.945,-1000.000,0.000
1673934848.434,-1000.000,-1000.000,555.664,-1000.000,0.000
1673934848.438,-1000.000,-1000.000,-950.684,-1000.000,0.000
1673934848.442,-980.957,-980.957,-1000.000,-977.539,0.000
1673934848.446,-969.727,-969.727,-884.766,-975.586,0.000
1673934848.450,-1000.000,-1000.000,385.254,-1000.000,0.000
1673934848.453,84.473,84.961,-918.457,127.441,0.000
1673934848.458,-904.297,-903.320,901.855,-900.391,0.000
1673934848.462,910.156,911.133,976.074,907.715,0.000
1673934848.466,959.473,959.961,953.125,962.891,0.000
1673934848.469,965.820,966.309,933.105,966.309,0.000
1673934848.473,965.332,966.309,-979.492,966.309,0.000
1673934848.477,902.344,902.832,32.227,902.832,0.000
1673934848.481,-896.973,-895.996,-1000.000,-896.484,0.000
1673934848.485,185.547,186.523,-1000.000,186.523,0.000
1673934848.489,-1000.000,-1000.000,-54.199,-1000.000,0.000
1673934848.493,-984.375,-984.375,-945.312,-984.375,0.000
1673934848.496,-973.145,-973.145,-361.328,-973.145,0.000
1673934848.500,-1000.000,-1000.000,-1000.000,-1000.000,0.000
1673934848.505,-1000.000,-1000.000,-1000.000,-1000.000,0.000
1673934848.508,-1000.000,-1000.000,-226.074,-1000.000,0.000
1673934848.512,-1000.000,-1000.000,-841.309,-1000.000,0.000
1673934848.516,-1000.000,-1000.000,-34.668,-1000.000,0.000
1673934848.520,-937.988,-937.988,-1000.000,-937.988,0.000
1673934848.524,-1000.000,-1000.000,-1000.000,-1000.000,0.000
1673934848.528,-221.680,-221.191,-119.629,-221.680,0.000
1673934848.532,-964.355,-963.379,-946.289,-963.379,0.000
1673934848.536,948.242,949.219,937.500,949.219,0.000
1673934848.539,937.500,937.988,944.824,937.988,0.000
1673934848.543,971.680,972.168,969.727,972.168,0.000
1673934848.547,964.844,965.332,962.402,965.332,0.000
1673934848.551,964.844,965.820,983.887,965.332,0.000
1673934848.555,964.844,965.332,870.605,965.332,0.000
1673934848.559,964.844,965.332,966.797,965.332,0.000
1673934848.563,974.609,972.168,821.777,973.145,0.000
1673934848.567,926.270,937.988,450.195,934.570,0.000
1673934848.571,975.098,949.219,-977.539,958.496,0.000
1673934848.575,960.449,-963.379,688.477,-989.258,0.000
1673934848.578,-363.281,-221.191,-682.617,-269.531,0.000
1673934848.582,-1000.000,-1000.000,-1000.000,-1000.000,0.000
1673934848.586,-934.570,-937.988,-672.363,-936.523,0.000
1673934848.590,-1000.000,-1000.000,846.680,-1000.000,0.000
1673934848.594,-1000.000,-1000.000,372.070,-1000.000,0.000
1673934848.598,-1000.000,-1000.000,-1000.000,-1000.000,0.000
1673934848.602,-1000.000,-1000.000,-1000.000,-1000.000,0.000
1673934848.606,-1000.000,-1000.000,-795.898,-1000.000,0.000
1673934848.610,-1000.000,-1000.000,766.602,-1000.000,0.000
1673934848.614,-1000.000,-1000.000,497.559,-1000.000,0.000
1673934848.618,-988.281,-988.281,-990.234,-988.281,0.000
1673934848.621,-957.031,-957.031,-1000.000,-957.520,0.000
1673934848.625,-1000.000,-1000.000,-901.855,-1000.000,0.000
1673934848.629,-18.066,-17.578,368.652,-13.184,0.000
1673934848.633,-917.969,-916.992,-916.504,-916.504,0.000
1673934848.637,920.898,921.875,901.855,921.387,0.000
1673934848.641,952.637,953.613,972.168,953.613,0.000
1673934848.645,966.797,967.773,963.867,967.773,0.000
1673934848.649,964.844,965.332,968.262,965.332,0.000
1673934848.653,964.844,965.332,957.520,965.332,0.000
1673934848.657,964.844,965.332,946.777,965.332,0.000
1673934848.661,964.844,965.820,964.844,965.820,0.000
1673934848.665,965.332,966.309,896.484,965.820,0.000
1673934848.668,901.855,902.832,878.906,902.832,0.000
1673934848.672,-896.973,-895.996,-892.090,-895.996,0.000
1673934848.676,186.035,186.035,121.094,186.035,0.000
1673934848.680,-1000.000,-1000.000,-1000.000,-1000.000,0.000
1673934848.684,-984.375,-984.375,-1000.000,-984.375,0.000
1673934848.688,-973.145,-973.145,-166.992,-973.145,0.000
1673934848.692,-1000.000,-1000.000,-820.312,-1000.000,0.000
1673934848.696,-1000.000,-1000.000,78.125,-1000.000,0.000
1673934848.700,-1000.000,-1000.000,-1000.000,-1000.000,0.000
1673934848.704,-1000.000,-1000.000,-1000.000,-1000.000,0.000
1673934848.708,-1000.000,-1000.000,-257.812,-1000.000,0.000
1673934848.712,-1000.000,-1000.000,-829.590,-1000.000,0.000
1673934848.715,-1000.000,-1000.000,158.203,-1000.000,0.000
1673934848.719,-925.781,-925.781,-1000.000,-926.270,0.000
1673934848.723,-1000.000,-1000.000,-1000.000,-1000.000,0.000
1673934848.727,-510.254,-510.254,-206.055,-491.699,0.000
1673934848.731,911.621,912.598,-973.633,921.875,0.000
1673934848.735,-1000.000,-999.023,950.684,997.070,0.000
1673934848.739,914.062,915.039,937.500,916.504,0.000
1673934848.743,979.492,979.980,977.051,979.492,0.000
1673934848.747,964.844,965.332,948.242,965.332,0.000
1673934848.751,974.121,975.586,946.289,975.586,0.000
1673934848.755,892.090,892.578,959.961,892.578,0.000
1673934848.758,-897.949,-897.461,11.230,-897.461,0.000
1673934848.762,371.094,382.324,-1000.000,382.324,0.000
1673934848.766,-1000.000,-996.094,-639.648,-996.094,0.000
1673934848.770,-1000.000,-1000.000,943.359,-1000.000,0.000
1673934848.774,-958.496,-957.520,403.320,-957.520,0.000
1673934848.778,-1000.000,-1000.000,-992.676,-1000.000,0.000
1673934848.782,-1000.000,-1000.000,-1000.000,-1000.000,0.000
1673934848.786,-1000.000,-1000.000,-820.801,-1000.000,0.000
1673934848.790,-1000.000,-1000.000,711.426,-1000.000,0.000
1673934848.794,-1000.000,-1000.000,592.285,-1000.000,0.000
1673934848.798,-973.145,-964.844,-902.832,-959.961,0.000
1673934848.802,-984.863,-1000.000,-1000.000,-1000.000,0.000
1673934848.805,-1000.000,-1000.000,-637.207,-979.004,0.000
1673934848.809,188.965,292.480,721.191,359.863,0.000
1673934848.813,-896.973,-903.320,-961.914,-907.227,0.000
1673934848.817,901.855,900.391,905.273,898.438,0.000
1673934848.821,965.332,970.215,981.445,972.656,0.000
1673934848.825,965.332,965.820,961.426,965.820,0.000
1673934848.829,964.844,965.820,914.062,965.332,0.000
1673934848.833,964.355,965.820,-923.828,966.309,0.000
1673934848.837,903.320,902.832,141.113,902.832,0.000
1673934848.841,-897.461,-895.996,-1000.000,-895.996,0.000
1673934848.845,172.852,186.523,-1000.000,186.523,0.000
1673934848.848,-1000.000,-1000.000,-182.129,-1000.000,0.000
1673934848.852,-982.422,-984.375,-838.379,-984.375,0.000
1673934848.856,-974.121,-973.145,19.531,-973.145,0.000
1673934848.860,-1000.000,-1000.000,-1000.000,-1000.000,0.000
1673934848.864,-1000.000,-1000.000,-1000.000,-1000.000,0.000
1673934848.868,-1000.000,-1000.000,-230.469,-1000.000,0.000
1673934848.872,-1000.000,-1000.000,-842.285,-1000.000,0.000
1673934848.876,-1000.000,-1000.000,8.789,-1000.000,0.000
1673934848.880,-931.641,-931.641,-1000.000,-934.570,0.000
1673934848.884,-1000.000,-1000.000,-1000.000,-1000.000,0.000
1673934848.888,-320.801,-319.336,-195.312,-270.508,0.000
1673934848.891,-998.047,-996.582,-964.355,-979.980,0.000
1673934848.895,964.355,965.332,947.754,957.031,0.000
1673934848.899,929.688,930.664,938.965,934.082,0.000
1673934848.903,974.121,974.609,974.121,973.633,0.000
1673934848.907,964.355,965.332,942.383,965.332,0.000
1673934848.911,978.516,979.004,-978.027,979.004,0.000
1673934848.915,910.645,911.133,695.801,911.621,0.000
1673934848.918,-982.422,-981.934,547.852,-981.934,0.000
1673934848.922,826.660,827.148,83.008,827.148,0.000
1673934848.927,-576.660,-576.660,-684.570,-576.660,0.000
1673934848.931,-1000.000,-1000.000,742.676,-1000.000,0.000
1673934848.934,-933.594,-933.105,354.980,-933.105,0.000
1673934848.938,-1000.000,-1000.000,-1000.000,-1000.000,0.000
1673934848.942,-1000.000,-1000.000,-1000.000,-1000.000,0.000
1673934848.946,-1000.000,-1000.000,-449.219,-1000.000,0.000
1673934848.950,-1000.000,-1000.000,-916.504,-1000.000,0.000
1673934848.954,-1000.000,-1000.000,349.609,-1000.000,0.000
1673934848.958,-988.281,-988.281,-996.582,-986.328,0.000
1673934848.962,-957.031,-957.031,-1000.000,-960.938,0.000
1673934848.965,-1000.000,-1000.000,-787.109,-1000.000,0.000
1673934848.969,-17.578,-17.578,552.246,14.160,0.000
1673934848.973,-917.969,-916.992,-936.035,-912.598,0.000
1673934848.977,920.898,921.875,901.855,918.457,0.000
1673934848.981,952.637,953.125,976.562,955.566,0.000
1673934848.985,966.797,967.773,965.332,967.285,0.000
1673934848.989,964.844,965.332,965.820,965.332,0.000
1673934848.993,978.516,981.445,970.215,980.957,0.000
1673934848.997,890.137,890.625,891.602,891.113,0.000
1673934849.001,-907.715,-915.527,-822.266,-915.527,0.000
1673934849.004,490.723,563.477,109.375,562.988,0.000
1673934849.008,-937.012,-891.602,-407.715,-891.602,0.000
1673934849.012,-1000.000,-1000.000,782.227,-1000.000,0.000
1673934849.016,-948.730,-942.871,-480.957,-942.871,0.000
1673934849.020,-1000.000,-1000.000,-1000.000,-1000.000,0.000
1673934849.024,-1000.000,-1000.000,-1000.000,-1000.000,0.000
1673934849.028,-1000.000,-1000.000,-128.906,-1000.000,0.000
1673934849.032,-1000.000,-1000.000,-928.223,-1000.000,0.000
1673934849.036,-1000.000,-1000.000,-324.219,-1000.000,0.000
1673934849.040,-1000.000,-1000.000,-1000.000,-1000.000,0.000
1673934849.044,-1000.000,-1000.000,-1000.000,-1000.000,0.000
1673934849.048,-1000.000,-1000.000,-144.531,-1000.000,0.000
1673934849.051,-1000.000,-1000.000,-963.867,-1000.000,0.000
1673934849.055,-1000.000,-1000.000,-363.281,-1000.000,0.000
1673934849.059,-927.734,-928.223,-1000.000,-930.176,0.000
1673934849.063,-1000.000,-1000.000,-1000.000,-1000.000,0.000
1673934849.067,-417.480,-401.855,-247.559,-354.980,0.000
1673934849.071,959.961,967.773,-971.680,987.793,0.000
1673934849.075,981.934,979.980,953.125,971.191,0.000
1673934849.079,921.387,923.828,936.035,927.246,0.000
1673934849.083,977.051,977.051,972.656,976.074,0.000
1673934849.087,964.844,965.332,965.332,965.332,0.000
1673934849.091,964.844,965.332,965.332,965.332,0.000
1673934849.094,964.844,965.332,965.332,965.332,0.000
1673934849.098,964.844,965.332,965.332,965.820,0.000
1673934849.102,964.844,965.820,971.191,965.820,0.000
1673934849.106,965.332,966.309,934.570,965.820,0.000
1673934849.110,901.855,902.832,978.027,902.832,0.000
1673934849.114,-896.973,-895.996,855.469,-895.996,0.000
1673934849.118,186.035,186.523,-235.840,186.523,0.000
1673934849.122,-1000.000,-1000.000,-1000.000,-1000.000,0.000
1673934849.126,-984.375,-984.375,-600.586,-984.375,0.000
1673934849.130,-973.145,-973.145,958.008,-973.145,0.000
1673934849.134,-1000.000,-1000.000,559.570,-1000.000,0.000
1673934849.138,-1000.000,-1000.000,-889.160,-1000.000,0.000
1673934849.141,-1000.000,-1000.000,-1000.000,-1000.000,0.000
1673934849.145,-1000.000,-1000.000,-778.809,-1000.000,0.000
1673934849.149,-1000.000,-1000.000,759.277,-1000.000,0.000
1673934849.153,-1000.000,-1000.000,520.508,-1000.000,0.000
1673934849.157,-995.117,-995.117,-984.375,-994.629,0.000
1673934849.161,-946.289,-946.289,-1000.000,-946.777,0.000
1673934849.165,-1000.000,-1000.000,-943.848,-1000.000,0.000
1673934849.169,-120.117,-120.117,289.062,-114.746,0.000
1673934849.173,-937.012,-936.523,-911.621,-936.035,0.000
1673934849.177,934.082,934.570,903.809,933.594,0.000
1673934849.181,945.312,945.801,969.238,946.289,0.000
1673934849.184,969.238,969.727,965.820,969.238,0.000
1673934849.188,964.844,965.332,965.332,965.332,0.000
1673934849.192,964.355,965.332,964.844,965.332,0.000
1673934849.196,964.844,965.332,960.938,965.332,0.000
1673934849.200,964.844,965.820,985.840,965.332,0.000
1673934849.204,965.332,966.309,859.375,966.309,0.000
1673934849.208,901.855,902.832,812.988,902.832,0.000
1673934849.212,-896.973,-895.996,-888.184,-896.484,0.000
1673934849.216,186.035,186.523,102.539,186.523,0.000
1673934849.220,-1000.000,-1000.000,-1000.000,-1000.000,0.000
1673934849.224,-984.375,-984.375,-1000.000,-984.375,0.000
1673934849.227,-973.145,-973.145,-136.719,-973.145,0.000
1673934849.231,-1000.000,-1000.000,-810.547,-1000.000,0.000
1673934849.235,-1000.000,-1000.000,93.262,-1000.000,0.000
1673934849.239,-1000.000,-1000.000,-1000.000,-1000.000,0.000
1673934849.243,-1000.000,-1000.000,-1000.000,-1000.000,0.000
1673934849.247,-1000.000,-1000.000,-252.930,-1000.000,0.000
1673934849.251,-1000.000,-1000.000,-840.820,-1000.000,0.000
1673934849.255,-1000.000,-1000.000,67.383,-1000.000,0.000
1673934849.259,-925.781,-925.781,-1000.000,-925.781,0.000
1673934849.263,-1000.000,-1000.000,-1000.000,-1000.000,0.000
1673934849.267,-598.145,-598.145,-297.363,-591.309,0.000
1673934849.270,855.957,856.445,995.117,860.840,0.000
1673934849.274,-981.445,-980.957,965.332,-981.934,0.000
1673934849.278,907.227,907.715,930.664,908.203,0.000
1673934849.282,980.957,981.934,975.098,981.445,0.000
1673934849.286,964.844,965.820,965.332,965.332,0.000
1673934849.290,964.844,965.820,965.820,965.820,0.000
1673934849.294,964.844,965.820,963.867,965.820,0.000
1673934849.298,964.844,965.820,967.285,965.332,0.000
1673934849.302,970.215,969.727,974.609,969.727,0.000
1673934849.306,941.895,945.801,888.672,944.824,0.000
1673934849.309,939.941,934.570,-975.098,936.523,0.000
1673934849.313,-948.730,-936.523,723.633,-939.941,0.000
1673934849.317,-163.574,-120.117,-562.500,-132.324,0.000
1673934849.321,-1000.000,-1000.000,-1000.000,-1000.000,0.000
1673934849.325,-942.871,-946.289,-395.996,-945.312,0.000
1673934849.329,-997.559,-995.117,-909.668,-996.094,0.000
1673934849.333,-1000.000,-1000.000,458.496,-1000.000,0.000
1673934849.337,-1000.000,-1000.000,-965.820,-1000.000,0.000
1673934849.340,-1000.000,-1000.000,-997.559,-1000.000,0.000
1673934849.344,-1000.000,-1000.000,-1000.000,-1000.000,0.000
1673934849.349,-1000.000,-1000.000,269.531,-1000.000,0.000
1673934849.352,-1000.000,-1000.000,822.266,-1000.000,0.000
1673934849.356,-1000.000,-1000.000,-760.742,-1000.000,0.000
1673934849.360,-937.988,-937.988,-1000.000,-937.988,0.000
1673934849.364,-1000.000,-1000.000,-1000.000,-1000.000,0.000
1673934849.368,-221.680,-221.680,0.000,-221.191,0.000
1673934849.372,-964.355,-963.379,-915.527,-963.379,0.000
1673934849.376,948.242,949.219,919.434,949.219,0.000
1673934849.380,937.500,937.988,955.078,937.988,0.000
1673934849.383,971.191,972.168,967.285,972.168,0.000
1673934849.387,964.355,965.332,965.332,965.332,0.000
1673934849.391,964.844,965.332,966.797,965.332,0.000
1673934849.395,964.844,965.332,955.078,965.332,0.000
1673934849.399,964.355,965.820,997.070,965.332,0.000
1673934849.403,980.469,981.445,849.121,981.445,0.000
1673934849.407,890.137,891.113,740.234,891.113,0.000
1673934849.411,-916.504,-916.992,-878.906,-915.527,0.000
1673934849.415,562.500,569.336,308.594,562.988,0.000
1673934849.419,-891.602,-884.277,-953.613,-891.602,0.000
1673934849.422,-1000.000,-1000.000,-1000.000,-1000.000,0.000
1673934849.426,-942.871,-942.383,-271.484,-942.871,0.000
1673934849.430,-1000.000,-1000.000,-847.168,-1000.000,0.000
1673934849.434,-1000.000,-1000.000,148.926,-1000.000,0.000
1673934849.438,-1000.000,-1000.000,-1000.000,-1000.000,0.000
1673934849.442,-1000.000,-1000.000,-1000.000,-1000.000,0.000
1673934849.446,-1000.000,-1000.000,-326.172,-1000.000,0.000
1673934849.450,-1000.000,-1000.000,-857.422,-1000.000,0.000
1673934849.454,-1000.000,-1000.000,162.598,-1000.000,0.000
1673934849.458,-946.289,-946.289,-1000.000,-943.848,0.000
1673934849.462,-1000.000,-1000.000,-1000.000,-1000.000,0.000
1673934849.465,-862.305,-862.305,-403.320,-834.473,0.000
1673934849.469,541.016,541.504,940.430,578.125,0.000
1673934849.473,-928.223,-927.246,986.328,-933.105,0.000
1673934849.477,897.461,898.438,921.387,898.926,0.000
1673934849.481,977.051,977.539,978.027,978.027,0.000
1673934849.485,964.844,965.332,965.332,965.332,0.000
1673934849.489,964.844,965.332,965.820,965.332,0.000
1673934849.493,964.844,965.332,962.891,965.332,0.000
1673934849.497,964.355,965.332,968.750,965.332,0.000
1673934849.501,965.332,965.820,968.750,965.820,0.000
1673934849.505,959.473,964.844,898.438,962.891,0.000
1673934849.509,910.156,904.297,944.336,907.227,0.000
1673934849.512,-904.297,-897.461,992.188,-899.902,0.000
1673934849.516,84.473,166.016,-175.293,133.301,0.000
1673934849.520,-1000.000,-1000.000,-1000.000,-1000.000,0.000
1673934849.524,-969.727,-981.445,-944.336,-976.562,0.000
1673934849.528,-980.957,-974.609,442.383,-977.539,0.000
1673934849.532,-1000.000,-1000.000,838.379,-1000.000,0.000
1673934849.536,-1000.000,-1000.000,-727.051,-1000.000,0.000
1673934849.540,-1000.000,-1000.000,-1000.000,-1000.000,0.000
1673934849.544,-1000.000,-1000.000,-1000.000,-1000.000,0.000
1673934849.548,-1000.000,-1000.000,22.949,-1000.000,0.000
1673934849.552,-1000.000,-1000.000,913.574,-1000.000,0.000
1673934849.555,-1000.000,-1000.000,-612.305,-1000.000,0.000
1673934849.559,-937.988,-937.988,-1000.000,-937.988,0.000
1673934849.563,-1000.000,-1000.000,-1000.000,-1000.000,0.000
1673934849.567,-221.680,-221.191,-48.828,-221.191,0.000
1673934849.571,-964.355,-963.379,-926.758,-963.379,0.000
1673934849.575,948.242,949.219,926.270,949.219,0.000
1673934849.579,937.500,937.988,951.660,937.988,0.000
1673934849.583,971.191,972.168,968.750,972.168,0.000
1673934849.587,964.844,965.332,965.332,965.332,0.000
1673934849.591,964.844,965.332,966.309,965.332,0.000
1673934849.595,964.355,965.332,956.055,965.332,0.000
1673934849.598,964.844,965.332,995.117,965.332,0.000
1673934849.602,980.469,981.445,854.492,981.445,0.000
1673934849.606,890.137,890.625,745.117,890.625,0.000
1673934849.610,-916.504,-915.527,-879.395,-915.527,0.000
1673934849.614,562.500,562.988,321.289,562.988,0.000
1673934849.618,-891.602,-891.602,-943.359,-891.602,0.000
1673934849.622,-1000.000,-1000.000,-1000.000,-1000.000,0.000
1673934849.626,-942.871,-942.871,-392.090,-942.871,0.000
1673934849.630,-1000.000,-1000.000,-898.926,-1000.000,0.000
1673934849.634,-1000.000,-1000.000,196.777,-1000.000,0.000
1673934849.638,-1000.000,-1000.000,-1000.000,-1000.000,0.000
1673934849.641,-1000.000,-1000.000,-1000.000,-1000.000,0.000
1673934849.645,-1000.000,-1000.000,-532.715,-1000.000,0.000
1673934849.649,-1000.000,-1000.000,-966.797,-1000.000,0.000
1673934849.653,-1000.000,-1000.000,297.852,-1000.000,0.000
1673934849.657,-973.145,-973.145,-1000.000,-973.145,0.000
1673934849.661,-984.375,-984.375,-1000.000,-984.375,0.000
1673934849.665,-1000.000,-1000.000,-703.613,-1000.000,0.000
1673934849.669,186.035,186.523,668.457,186.523,0.000
1673934849.672,-896.973,-895.996,-952.637,-895.996,0.000
1673934849.677,901.855,902.832,903.809,902.832,0.000
1673934849.681,965.332,966.309,979.004,965.820,0.000
1673934849.684,964.844,965.820,964.844,965.332,0.000
1673934849.688,964.844,965.332,967.285,965.332,0.000
1673934849.692,964.844,965.332,959.473,965.820,0.000
1673934849.696,964.844,965.820,958.984,965.332,0.000
1673934849.700,964.844,965.820,969.238,965.332,0.000
1673934849.704,965.332,966.309,915.039,965.820,0.000
1673934849.708,901.855,902.832,915.039,902.832,0.000
1673934849.712,-896.973,-895.996,-940.430,-895.996,0.000
1673934849.715,186.035,186.523,-12.207,186.523,0.000
1673934849.719,-1000.000,-1000.000,-1000.000,-1000.000,0.000
1673934849.723,-984.375,-984.375,-1000.000,-984.375,0.000
1673934849.727,-973.145,-973.145,70.801,-973.145,0.000
1673934849.731,-1000.000,-1000.000,-923.828,-1000.000,0.000
1673934849.735,-1000.000,-1000.000,-320.312,-1000.000,0.000
1673934849.739,-1000.000,-1000.000,-1000.000,-1000.000,0.000
1673934849.743,-1000.000,-1000.000,-993.164,-1000.000,0.000
1673934849.747,-1000.000,-1000.000,172.852,-1000.000,0.000
1673934849.751,-1000.000,-1000.000,-807.129,-1000.000,0.000
1673934849.754,-1000.000,-1000.000,-137.207,-1000.000,0.000
1673934849.758,-930.664,-931.641,-1000.000,-931.641,0.000
1673934849.762,-1000.000,-1000.000,-1000.000,-1000.000,0.000
1673934849.766,-347.168,-320.801,-201.660,-320.801,0.000
1673934849.770,990.723,-997.559,-961.914,-997.559,0.000
1673934849.774,969.238,965.332,947.754,965.332,0.000
1673934849.778,927.246,930.176,938.965,930.176,0.000
1673934849.782,975.098,975.098,971.680,975.098,0.000
1673934849.786,964.844,965.820,965.820,965.332,0.000
1673934849.790,964.844,965.332,972.168,965.332,0.000
1673934849.794,964.844,965.332,926.270,965.820,0.000
1673934849.798,964.844,965.820,-980.469,965.332,0.000
1673934849.801,980.469,981.445,815.918,981.445,0.000
1673934849.805,890.137,890.625,504.883,891.113,0.000
1673934849.809,-915.527,-915.527,-912.598,-915.527,0.000
1673934849.813,555.176,563.477,349.121,562.988,0.000
1673934849.817,-895.996,-891.602,-959.473,-891.602,0.000
1673934849.821,-1000.000,-1000.000,-1000.000,-1000.000,0.000
1673934849.825,-943.359,-942.871,-582.031,-942.871,0.000
1673934849.829,-1000.000,-1000.000,958.984,-1000.000,0.000
1673934849.833,-1000.000,-1000.000,312.500,-1000.000,0.000
1673934849.837,-1000.000,-1000.000,-1000.000,-1000.000,0.000
1673934849.841,-1000.000,-1000.000,-1000.000,-1000.000,0.000
1673934849.845,-1000.000,-1000.000,-711.426,-1000.000,0.000
1673934849.848,-1000.000,-1000.000,872.070,-1000.000,0.000
1673934849.852,-1000.000,-1000.000,434.570,-1000.000,0.000
1673934849.856,-988.281,-988.281,-1000.000,-988.281,0.000
1673934849.860,-957.031,-957.031,-1000.000,-957.031,0.000
1673934849.864,-1000.000,-1000.000,-953.613,-1000.000,0.000
1673934849.868,-18.066,-17.578,288.086,-17.578,0.000
1673934849.872,-917.969,-916.992,-910.156,-916.992,0.000
1673934849.876,921.387,921.875,903.320,921.875,0.000
1673934849.880,952.637,953.613,969.238,953.125,0.000
1673934849.884,966.797,967.773,964.355,967.773,0.000
1673934849.888,964.844,965.332,968.750,965.332,0.000
1673934849.892,964.844,965.332,951.660,965.332,0.000
1673934849.895,964.844,965.332,927.246,965.820,0.000
1673934849.899,965.332,966.309,-933.594,966.309,0.000
1673934849.903,958.008,960.449,358.398,959.961,0.000
1673934849.907,912.598,911.133,417.969,911.133,0.000
1673934849.911,-907.227,-903.320,-902.832,-903.320,0.000
1673934849.915,63.965,84.961,-247.559,84.961,0.000
1673934849.919,-1000.000,-1000.000,-1000.000,-1000.000,0.000
1673934849.923,-967.285,-969.727,-1000.000,-969.727,0.000
1673934849.927,-982.422,-980.957,-64.941,-980.957,0.000
1673934849.931,-1000.000,-1000.000,-800.781,-1000.000,0.000
1673934849.935,-1000.000,-1000.000,48.828,-1000.000,0.000
1673934849.938,-1000.000,-1000.000,-1000.000,-1000.000,0.000
1673934849.942,-1000.000,-1000.000,-1000.000,-1000.000,0.000
1673934849.946,-1000.000,-1000.000,-239.258,-1000.000,0.000
1673934849.950,-1000.000,-1000.000,-844.238,-1000.000,0.000
1673934849.954,-1000.000,-1000.000,22.949,-1000.000,0.000
1673934849.958,-926.758,-927.734,-1000.000,-927.734,0.000
1673934849.962,-1000.000,-1000.000,-1000.000,-1000.000,0.000
1673934849.966,-465.820,-416.992,-231.934,-417.480,0.000
1673934849.970,935.059,960.938,-976.562,960.938,0.000
1673934849.974,991.211,982.422,953.613,982.422,0.000
1673934849.978,917.480,922.363,936.035,922.363,0.000
1673934849.981,978.027,977.539,972.168,977.539,0.000
1673934849.985,964.844,965.332,963.379,965.332,0.000
1673934849.989,964.844,965.820,979.980,965.332,0.000
1673934849.993,964.844,965.332,885.254,965.332,0.000
1673934849.997,964.844,965.332,938.965,965.332,0.000
1673934850.001,975.098,976.074,920.410,976.074,0.000
1673934850.005,923.340,923.828,636.719,924.316,0.000
1673934850.009,982.910,983.398,-967.773,983.398,0.000
1673934850.013,938.965,939.453,587.891,939.453,0.000
1673934850.017,-403.809,-403.320,-759.277,-403.809,0.000
1673934850.021,-1000.000,-1000.000,-1000.000,-1000.000,0.000
1673934850.024,-933.594,-933.594,-475.098,-933.594,0.000
1673934850.028,-1000.000,-1000.000,-961.914,-1000.000,0.000
1673934850.032,-1000.000,-1000.000,459.473,-1000.000,0.000
1673934850.036,-1000.000,-1000.000,-932.129,-1000.000,0.000
1673934850.040,-1000.000,-1000.000,-1000.000,-1000.000,0.000
1673934850.044,-1000.000,-1000.000,-605.957,-1000.000,0.000
1673934850.048,-1000.000,-1000.000,948.730,-1000.000,0.000
1673934850.052,-1000.000,-1000.000,536.133,-1000.000,0.000
1673934850.056,-1000.000,-1000.000,-953.125,-1000.000,0.000
1673934850.060,-937.988,-937.988,-1000.000,-939.453,0.000
1673934850.064,-1000.000,-1000.000,-990.723,-1000.000,0.000
1673934850.067,-221.680,-221.191,179.199,-201.172,0.000
1673934850.071,-964.355,-963.379,-909.668,-958.496,0.000
1673934850.075,948.242,949.219,908.691,946.289,0.000
1673934850.079,937.500,937.988,964.355,939.941,0.000
1673934850.083,971.191,972.168,966.309,971.680,0.000
1673934850.087,964.844,965.332,965.332,965.332,0.000
1673934850.091,964.844,965.332,962.891,965.332,0.000
1673934850.095,964.844,965.332,964.844,965.332,0.000
1673934850.099,964.844,965.820,980.469,965.820,0.000
1673934850.103,965.332,966.309,849.609,966.309,0.000
1673934850.107,901.855,902.832,834.473,902.832,0.000
1673934850.111,-896.973,-895.996,-886.719,-895.996,0.000
1673934850.114,186.035,186.035,81.543,186.523,0.000
1673934850.118,-1000.000,-1000.000,-1000.000,-1000.000,0.000
1673934850.122,-984.375,-984.375,-1000.000,-984.375,0.000
1673934850.126,-973.145,-973.145,-241.699,-973.145,0.000
1673934850.130,-1000.000,-1000.000,-840.332,-1000.000,0.000
1673934850.134,-1000.000,-1000.000,53.711,-1000.000,0.000
1673934850.138,-1000.000,-1000.000,-1000.000,-1000.000,0.000
1673934850.142,-1000.000,-1000.000,-1000.000,-1000.000,0.000
1673934850.146,-1000.000,-1000.000,-276.367,-1000.000,0.000
1673934850.150,-1000.000,-1000.000,-834.473,-1000.000,0.000
1673934850.154,-1000.000,-1000.000,160.156,-1000.000,0.000
1673934850.158,-931.641,-931.641,-1000.000,-931.641,0.000
1673934850.161,-1000.000,-1000.000,-1000.000,-1000.000,0.000
1673934850.165,-320.801,-320.801,-194.824,-320.801,0.000
1673934850.169,-998.047,-997.070,-969.727,-997.070,0.000
1673934850.173,964.844,965.332,949.219,965.332,0.000
1673934850.177,929.688,930.176,938.477,930.176,0.000
1673934850.181,974.121,974.609,972.168,975.098,0.000
1673934850.185,964.844,965.332,965.332,965.332,0.000
1673934850.189,964.844,965.332,966.797,965.332,0.000
1673934850.193,964.844,965.332,956.543,965.332,0.000
1673934850.197,964.844,965.820,977.539,965.820,0.000
1673934850.201,967.285,967.773,964.844,967.773,0.000
1673934850.204,950.684,953.613,768.066,952.637,0.000
1673934850.208,924.316,921.875,955.566,923.340,0.000
1673934850.212,-922.852,-916.992,866.699,-918.945,0.000
1673934850.216,-42.969,-17.578,-420.410,-27.832,0.000
1673934850.220,-1000.000,-1000.000,-1000.000,-1000.000,0.000
1673934850.224,-954.590,-957.031,-807.617,-956.055,0.000
1673934850.228,-990.234,-988.281,694.336,-989.258,0.000
1673934850.232,-1000.000,-1000.000,652.832,-1000.000,0.000
1673934850.235,-1000.000,-1000.000,-893.555,-1000.000,0.000
1673934850.240,-1000.000,-1000.000,-1000.000,-1000.000,0.000
1673934850.244,-1000.000,-1000.000,-1000.000,-1000.000,0.000
1673934850.248,-1000.000,-1000.000,251.953,-1000.000,0.000
1673934850.251,-1000.000,-1000.000,886.230,-1000.000,0.000
1673934850.255,-995.117,-995.117,-658.203,-994.629,0.000
1673934850.259,-946.289,-946.289,-1000.000,-946.777,0.000
1673934850.263,-1000.000,-1000.000,-957.031,-1000.000,0.000
1673934850.267,-120.117,-120.117,233.398,-115.234,0.000
1673934850.271,-937.500,-936.523,-909.180,-935.547,0.000
1673934850.275,934.082,934.570,905.273,934.082,0.000
1673934850.279,945.312,946.289,966.797,946.289,0.000
1673934850.282,968.750,969.727,965.820,969.727,0.000
1673934850.287,964.844,965.332,965.820,965.332,0.000
1673934850.291,964.844,965.332,968.262,965.332,0.000
1673934850.294,964.844,965.332,939.941,965.332,0.000
1673934850.298,964.355,965.332,-975.586,965.332,0.000
1673934850.302,970.703,971.680,743.164,971.191,0.000
1673934850.306,895.508,896.484,589.844,896.484,0.000
1673934850.310,-895.020,-894.043,-860.840,-894.043,0.000
1673934850.314,285.156,285.645,186.523,285.645,0.000
1673934850.318,-1000.000,-1000.000,-1000.000,-1000.000,0.000
1673934850.322,-1000.000,-1000.000,-1000.000,-1000.000,0.000
1673934850.325,-965.332,-965.332,-287.109,-965.332,0.000
1673934850.329,-1000.000,-1000.000,-845.215,-1000.000,0.000
1673934850.334,-1000.000,-1000.000,158.203,-1000.000,0.000
1673934850.337,-1000.000,-1000.000,-1000.000,-1000.000,0.000
1673934850.341,-1000.000,-1000.000,-1000.000,-1000.000,0.000
1673934850.345,-1000.000,-1000.000,-301.758,-1000.000,0.000
1673934850.349,-1000.000,-1000.000,-845.215,-1000.000,0.000
1673934850.353,-1000.000,-1000.000,218.262,-1000.000,0.000
1673934850.357,-981.934,-980.957,-1000.000,-980.957,0.000
1673934850.361,-968.262,-969.727,-1000.000,-969.727,0.000
1673934850.365,-1000.000,-1000.000,-460.449,-1000.000,0.000
1673934850.368,71.289,84.961,888.672,84.961,0.000
1673934850.372,-906.250,-903.320,999.023,-903.320,0.000
1673934850.376,911.621,911.133,917.480,911.133,0.000
1673934850.380,958.496,960.449,979.004,959.961,0.000
1673934850.384,965.820,966.309,961.426,966.309,0.000
1673934850.388,964.355,965.820,976.562,965.332,0.000
1673934850.392,964.355,965.820,927.246,965.332,0.000
1673934850.396,964.844,965.332,916.992,965.332,0.000
1673934850.400,971.680,971.680,970.703,972.168,0.000
1673934850.404,937.500,940.430,830.566,938.477,0.000
1673934850.408,948.242,945.801,-998.047,948.730,0.000
1673934850.411,-964.355,-957.031,791.992,-963.867,0.000
1673934850.415,-221.680,-196.777,-560.059,-221.680,0.000
1673934850.419,-1000.000,-1000.000,-1000.000,-1000.000,0.000
1673934850.423,-937.988,-939.941,-987.793,-937.988,0.000
1673934850.427,-1000.000,-999.512,304.199,-1000.000,0.000
1673934850.431,-1000.000,-1000.000,923.828,-1000.000,0.000
1673934850.435,-1000.000,-1000.000,-626.465,-1000.000,0.000
1673934850.439,-1000.000,-1000.000,-1000.000,-1000.000,0.000
1673934850.443,-1000.000,-1000.000,-1000.000,-1000.000,0.000
1673934850.447,-1000.000,-1000.000,-133.301,-1000.000,0.000
1673934850.450,-1000.000,-1000.000,-824.707,-1000.000,0.000
1673934850.454,-1000.000,-1000.000,-72.266,-1000.000,0.000
1673934850.458,-937.988,-937.988,-1000.000,-937.988,0.000
1673934850.462,-1000.000,-1000.000,-1000.000,-1000.000,0.000
1673934850.466,-221.680,-221.191,-133.301,-221.680,0.000
1673934850.470,-964.355,-963.379,-947.754,-963.379,0.000
1673934850.474,948.242,949.219,938.965,949.219,0.000
1673934850.478,937.500,938.477,943.848,937.988,0.000
1673934850.482,971.680,972.168,970.703,972.168,0.000
1673934850.486,964.844,965.820,965.332,965.332,0.000
1673934850.490,964.355,965.332,969.727,965.332,0.000
1673934850.493,964.844,965.332,945.801,965.332,0.000
1673934850.497,964.844,965.820,-989.258,965.332,0.000
1673934850.501,978.516,979.004,841.797,979.004,0.000
1673934850.505,890.137,890.625,623.047,890.625,0.000
1673934850.509,-905.762,-904.785,-896.484,-904.785,0.000
1673934850.513,474.609,475.098,285.645,475.098,0.000
1673934850.517,-947.754,-947.754,-979.492,-947.754,0.000
1673934850.521,-1000.000,-1000.000,-1000.000,-1000.000,0.000
1673934850.525,-949.707,-949.707,-327.148,-949.707,0.000
1673934850.529,-1000.000,-1000.000,-863.770,-1000.000,0.000
1673934850.533,-1000.000,-1000.000,183.594,-1000.000,0.000
1673934850.537,-1000.000,-1000.000,-1000.000,-1000.000,0.000
1673934850.540,-1000.000,-1000.000,-1000.000,-1000.000,0.000
1673934850.544,-1000.000,-1000.000,-330.566,-1000.000,0.000
1673934850.548,-1000.000,-1000.000,-858.398,-1000.000,0.000
1673934850.552,-1000.000,-1000.000,181.641,-1000.000,0.000
1673934850.556,-980.957,-978.027,-1000.000,-976.074,0.000
1673934850.560,-969.727,-975.098,-1000.000,-979.492,0.000
1673934850.564,-1000.000,-1000.000,-763.184,-1000.000,0.000
1673934850.568,84.473,122.559,606.445,151.855,0.000
1673934850.572,-904.297,-900.879,-942.383,-898.438,0.000
1673934850.576,910.645,908.203,902.344,905.762,0.000
1673934850.580,959.473,962.402,978.027,963.867,0.000
1673934850.583,965.332,965.820,965.332,965.820,0.000
1673934850.587,964.844,965.332,965.332,965.332,0.000
1673934850.591,964.844,965.332,960.449,965.332,0.000
1673934850.595,964.844,965.332,967.773,965.332,0.000
1673934850.599,964.844,965.820,983.398,965.820,0.000
1673934850.603,965.332,966.309,788.574,966.309,0.000
1673934850.607,901.855,902.832,849.121,902.832,0.000
1673934850.611,-896.973,-895.996,-946.777,-895.996,0.000
1673934850.615,186.035,186.523,-112.793,186.035,0.000
1673934850.619,-1000.000,-1000.000,-1000.000,-1000.000,0.000
1673934850.623,-984.375,-984.375,-1000.000,-984.375,0.000
1673934850.627,-973.145,-973.145,24.414,-973.145,0.000
1673934850.630,-1000.000,-1000.000,-919.434,-1000.000,0.000
1673934850.634,-1000.000,-1000.000,-339.355,-1000.000,0.000
1673934850.638,-1000.000,-1000.000,-1000.000,-1000.000,0.000
1673934850.642,-1000.000,-1000.000,-1000.000,-1000.000,0.000
1673934850.646,-1000.000,-1000.000,-92.285,-1000.000,0.000
1673934850.650,-1000.000,-1000.000,-828.613,-1000.000,0.000
1673934850.654,-1000.000,-1000.000,-107.910,-1000.000,0.000
1673934850.658,-931.641,-931.641,-1000.000,-931.641,0.000
1673934850.662,-1000.000,-1000.000,-1000.000,-1000.000,0.000
1673934850.666,-320.801,-320.801,-211.914,-320.801,0.000
1673934850.670,-998.047,-997.559,-965.332,-997.559,0.000
1673934850.673,964.355,965.332,949.219,965.332,0.000
1673934850.677,929.688,930.176,937.988,930.176,0.000
1673934850.681,974.121,975.098,972.168,975.098,0.000
1673934850.685,964.844,965.332,965.332,965.332,0.000
1673934850.689,964.844,965.332,969.727,965.332,0.000
1673934850.693,964.844,965.332,945.801,965.332,0.000
1673934850.697,964.844,965.332,-992.676,965.332,0.000
1673934850.701,979.980,980.957,872.070,980.957,0.000
1673934850.704,898.926,899.902,613.770,899.902,0.000
1673934850.709,-947.266,-947.754,-922.852,-947.754,0.000
1673934850.713,697.266,702.148,413.574,702.148,0.000
1673934850.716,-744.629,-740.234,-906.738,-740.234,0.000
1673934850.720,-1000.000,-1000.000,-1000.000,-1000.000,0.000
1673934850.724,-936.523,-936.523,-479.492,-936.523,0.000
1673934850.728,-1000.000,-1000.000,-965.332,-1000.000,0.000
1673934850.732,-1000.000,-1000.000,511.719,-1000.000,0.000
